%OpenBCI Raw EEG Data
%
%Sample Rate = 250.0 Hz
%First Column = SampleIndex
%Other Columns = EEG data in microvolts followed by Accel Data (in G) interleaved with Aux Data
0, -180967.86, -180924.92, -181735.41, -181083.67, -181393.94, -181081.73, -172542.55, -181606.06, 0.00, 0.00, 0.00
1, -180972.95, -180931.91, -181731.98, -181087.02, -181394.84, -181109.03, -172537.78, -181719.77, 0.00, 0.00, 0.00
2, -180969.47, -180936.67, -181668.25, -181076.66, -181414.16, -181115.11, -172494.94, -181735.03, 0.00, -0.26, 0.48
3, -180972.03, -180944.67, -181632.22, -181069.20, -181395.13, -181098.98, -172474.77, -181670.19, 0.00, 0.00, 0.00
4, -180983.31, -180952.52, -181656.33, -181085.58, -181397.86, -181086.73, -172495.80, -181597.50, 0.00, 0.00, 0.00
5, -180994.11, -180957.42, -181670.09, -181095.70, -181399.11, -181105.03, -172502.64, -181697.02, 0.00, 0.00, 0.00
6, -180957.08, -180916.44, -181612.75, -181070.16, -181397.47, -181110.55, -172465.36, -181724.64, 0.00, 0.00, 0.00
7, -180935.78, -180896.42, -181573.14, -181055.36, -181381.14, -181092.55, -172446.94, -181659.22, 0.00, 0.00, 0.00
8, -180943.84, -180906.34, -181590.64, -181064.86, -181381.19, -181075.44, -172465.47, -181589.44, 0.00, 0.00, 0.00
9, -180977.64, -180937.88, -181616.72, -181088.75, -181392.88, -181094.09, -172481.61, -181671.33, 0.00, 0.00, 0.00
10, -180965.08, -180930.81, -181563.17, -181079.92, -181405.56, -181115.16, -172445.13, -181749.34, 0.00, 0.00, 0.00
11, -180961.14, -180926.95, -181510.00, -181075.98, -181398.19, -181102.66, -172413.11, -181689.34, 0.00, 0.00, 0.00
12, -180940.36, -180897.95, -181518.20, -181069.89, -181372.47, -181078.47, -172424.28, -181602.59, 0.00, -0.23, 0.48
13, -180981.75, -180937.83, -181553.95, -181099.89, -181392.05, -181088.89, -172449.17, -181639.50, 0.00, 0.00, 0.00
14, -180966.56, -180928.63, -181512.78, -181080.55, -181401.72, -181117.31, -172419.27, -181743.97, 0.00, 0.00, 0.00
15, -180966.00, -180944.09, -181451.83, -181069.55, -181400.19, -181104.58, -172383.22, -181700.39, 0.00, 0.00, 0.00
16, -180929.45, -180899.33, -181446.78, -181056.41, -181369.61, -181074.34, -172386.44, -181605.14, 0.00, 0.00, 0.00
17, -180972.97, -180939.05, -181486.33, -181088.59, -181388.31, -181077.67, -172413.02, -181621.64, 0.00, 0.00, 0.00
18, -180966.33, -180933.31, -181459.66, -181078.14, -181392.61, -181110.08, -172390.06, -181730.27, 0.00, 0.00, 0.00
19, -180951.89, -180926.72, -181393.98, -181057.95, -181394.34, -181101.22, -172350.42, -181702.39, 0.00, 0.00, 0.00
20, -180918.23, -180890.84, -181378.91, -181047.98, -181366.11, -181078.66, -172348.34, -181614.16, 0.00, 0.00, 0.00
21, -180957.61, -180928.14, -181415.52, -181075.92, -181380.52, -181075.31, -172374.91, -181610.39, 0.00, 0.00, 0.00
22, -180960.08, -180930.70, -181404.47, -181073.75, -181384.53, -181100.59, -172362.25, -181715.34, 0.00, 0.00, 0.00
23, -180970.58, -180941.23, -181338.56, -181055.97, -181404.20, -181103.91, -172320.83, -181722.17, 0.00, -0.24, 0.48
24, -180929.28, -180893.78, -181309.72, -181040.58, -181360.69, -181074.38, -172307.11, -181623.47, 0.00, 0.00, 0.00
25, -180952.00, -180917.34, -181343.55, -181062.89, -181369.36, -181064.23, -172330.78, -181591.88, 0.00, 0.00, 0.00
26, -180968.33, -180933.36, -181345.42, -181070.84, -181378.31, -181092.00, -172328.75, -181694.39, 0.00, 0.00, 0.00
27, -180952.61, -180923.91, -181119.00, -181060.52, -181399.52, -181103.19, -172286.66, -181719.20, 0.00, 0.00, 0.00
28, -180952.94, -180926.17, -181014.33, -181065.19, -181392.67, -181096.55, -172245.70, -181707.19, 0.00, 0.00, 0.00
29, -180937.41, -180902.52, -181330.58, -181054.16, -181368.59, -181079.61, -172226.56, -181672.73, 0.00, 0.00, 0.00
30, -180939.25, -180902.73, -181830.83, -181053.50, -181374.92, -181087.23, -172203.52, -181717.27, 0.00, 0.00, 0.00
31, -180984.30, -180964.70, -182170.78, -181078.11, -181419.88, -181090.08, -172146.47, -181755.13, 0.00, 0.00, 0.00
32, -180937.88, -180912.48, -182143.98, -181051.03, -181375.81, -181081.58, -172111.78, -181680.77, 0.00, 0.00, 0.00
33, -180922.36, -180888.48, -182154.64, -181051.11, -181354.52, -181055.56, -172126.23, -181573.03, -0.01, -0.25, 0.48
34, -180959.11, -180922.59, -182184.03, -181074.09, -181369.53, -181068.39, -172145.34, -181644.70, 0.00, 0.00, 0.00
35, -180945.48, -180907.92, -182141.03, -181051.84, -181378.92, -181092.02, -172117.64, -181703.00, 0.00, 0.00, 0.00
36, -180930.75, -180892.08, -182092.30, -181042.75, -181368.78, -181080.63, -172094.91, -181650.52, 0.00, 0.00, 0.00
37, -180912.70, -180874.36, -182097.02, -181040.72, -181346.63, -181059.03, -172107.89, -181595.13, 0.00, 0.00, 0.00
38, -180956.83, -180916.83, -182132.83, -181071.09, -181366.94, -181067.16, -172129.89, -181624.59, 0.00, 0.00, 0.00
39, -180945.69, -180908.95, -182101.06, -181059.42, -181377.22, -181093.17, -172107.23, -181704.97, 0.00, 0.00, 0.00
40, -180933.20, -180901.42, -182043.13, -181041.13, -181380.80, -181083.91, -172079.34, -181667.91, 0.00, 0.00, 0.00
41, -180912.48, -180876.95, -182035.78, -181030.70, -181357.05, -181058.63, -172086.16, -181590.23, 0.00, 0.00, 0.00
42, -180952.19, -180913.27, -182072.52, -181061.11, -181372.75, -181056.08, -172112.47, -181600.08, 0.00, 0.00, 0.00
43, -180943.02, -180904.08, -182056.83, -181053.34, -181366.11, -181084.31, -172099.00, -181689.84, -0.01, -0.26, 0.48
44, -180923.00, -180890.25, -182002.58, -181038.19, -181365.53, -181080.75, -172070.81, -181657.84, 0.00, 0.00, 0.00
45, -180917.78, -180883.16, -181986.00, -181033.02, -181354.81, -181065.38, -172067.50, -181610.69, 0.00, 0.00, 0.00
46, -180944.89, -180905.52, -182018.23, -181055.84, -181363.81, -181055.52, -172088.58, -181587.53, 0.00, 0.00, 0.00
47, -180950.13, -180910.75, -182015.36, -181058.56, -181366.98, -181085.27, -172081.98, -181697.53, 0.00, 0.00, 0.00
48, -180946.53, -180916.94, -181955.55, -181048.20, -181383.50, -181090.56, -172045.97, -181692.77, 0.00, 0.00, 0.00
49, -180914.30, -180879.09, -181926.03, -181032.34, -181357.56, -181066.58, -172035.17, -181619.30, 0.00, 0.00, 0.00
50, -180929.67, -180892.69, -181952.72, -181048.14, -181360.86, -181052.23, -172055.98, -181578.91, 0.00, 0.00, 0.00
51, -180951.61, -180913.14, -181964.19, -181060.09, -181364.27, -181075.88, -172058.61, -181667.97, 0.00, 0.00, 0.00
52, -180930.45, -180896.75, -181911.80, -181044.56, -181372.44, -181087.66, -172029.17, -181680.36, 0.00, 0.00, 0.00
53, -180909.06, -180874.22, -181877.41, -181030.92, -181351.14, -181063.27, -172018.45, -181617.55, 0.00, 0.00, 0.00
54, -180916.59, -180878.67, -181895.63, -181041.05, -181349.78, -181050.33, -172037.73, -181586.38, 0.00, -0.23, 0.48
55, -180948.03, -180909.36, -181917.78, -181061.23, -181363.03, -181071.63, -172049.03, -181660.09, 0.00, 0.00, 0.00
56, -180936.22, -180904.39, -181868.52, -181048.14, -181381.42, -181084.42, -172019.20, -181700.25, 0.00, 0.00, 0.00
57, -180920.84, -180890.19, -181823.13, -181036.98, -181361.20, -181071.70, -171999.81, -181640.31, 0.00, 0.00, 0.00
58, -180914.91, -180880.34, -181832.16, -181038.08, -181348.22, -181053.80, -172012.02, -181578.61, 0.00, 0.00, 0.00
59, -180951.17, -180914.05, -181864.77, -181064.03, -181362.98, -181060.23, -172029.34, -181629.28, 0.00, 0.00, 0.00
60, -180941.86, -180905.89, -181830.11, -181047.77, -181370.16, -181086.72, -172005.36, -181700.25, 0.00, 0.00, 0.00
61, -180926.17, -180897.33, -181781.30, -181028.66, -181358.27, -181070.53, -171984.23, -181628.45, 0.00, 0.00, 0.00
62, -180905.06, -180873.91, -181786.17, -181028.92, -181338.94, -181045.92, -171999.44, -181567.22, 0.00, 0.00, 0.00
63, -180954.22, -180919.50, -181822.36, -181058.98, -181359.33, -181056.34, -172021.08, -181618.06, 0.00, 0.00, 0.00
64, -180943.20, -180906.67, -181792.83, -181044.98, -181364.89, -181081.67, -171996.44, -181703.78, -0.01, -0.39, 0.46
65, -180935.44, -180899.59, -181735.14, -181038.73, -181369.94, -181077.22, -171969.48, -181658.95, 0.00, 0.00, 0.00
66, -180900.02, -180865.97, -181727.86, -181032.77, -181341.34, -181051.31, -171978.94, -181577.25, 0.00, 0.00, 0.00
67, -180944.30, -180907.38, -181766.09, -181061.17, -181358.31, -181049.28, -172006.28, -181594.81, 0.00, 0.00, 0.00
68, -180948.45, -180909.84, -181757.42, -181059.25, -181364.64, -181079.80, -171994.45, -181699.41, 0.00, 0.00, 0.00
69, -180943.20, -180910.50, -181697.30, -181045.80, -181380.31, -181086.78, -171958.14, -181696.63, 0.00, 0.00, 0.00
70, -180905.94, -180870.17, -181668.42, -181030.55, -181345.16, -181058.38, -171945.95, -181622.31, 0.00, 0.00, 0.00
71, -180923.81, -180885.16, -181692.14, -181043.67, -181344.14, -181047.77, -171962.30, -181591.64, 0.00, 0.00, 0.00
72, -180938.61, -180901.95, -181693.09, -181048.94, -181357.17, -181074.25, -171958.06, -181676.92, 0.00, 0.00, 0.00
73, -180956.94, -180923.22, -181634.09, -181043.36, -181383.53, -181087.59, -171923.38, -181689.03, 0.00, 0.00, 0.00
74, -180912.98, -180875.45, -181602.13, -181024.69, -181341.02, -181056.20, -171912.48, -181603.92, 0.00, 0.00, 0.00
75, -180928.45, -180890.67, -181630.67, -181044.34, -181346.61, -181043.58, -171938.28, -181550.39, -0.01, -0.26, 0.46
76, -180964.81, -180924.00, -181656.42, -181067.77, -181361.56, -181061.97, -171953.66, -181637.53, 0.00, 0.00, 0.00
77, -180919.75, -180881.70, -181613.75, -181035.63, -181354.88, -181075.47, -171929.81, -181664.52, 0.00, 0.00, 0.00
78, -180893.27, -180859.16, -181581.61, -181012.36, -181347.00, -181056.14, -171920.77, -181609.06, 0.00, 0.00, 0.00
79, -180923.39, -180890.89, -181594.70, -181025.92, -181347.63, -181044.67, -171935.00, -181580.88, 0.00, 0.00, 0.00
80, -180952.00, -180916.63, -181619.70, -181048.72, -181357.33, -181060.72, -171945.73, -181642.00, 0.00, 0.00, 0.00
81, -180922.92, -180890.45, -181577.55, -181037.45, -181366.61, -181079.50, -171919.00, -181695.69, 0.00, 0.00, 0.00
82, -180921.11, -180894.83, -181526.53, -181037.48, -181364.28, -181069.69, -171893.36, -181652.94, 0.00, 0.00, 0.00
83, -180897.41, -180868.09, -181518.59, -181033.64, -181345.31, -181049.92, -171889.77, -181606.75, 0.00, 0.00, 0.00
84, -180925.55, -180891.13, -181543.59, -181046.42, -181347.41, -181051.81, -171899.66, -181635.45, 0.00, 0.00, 0.00
85, -180935.48, -180904.44, -181509.64, -181038.42, -181371.61, -181078.56, -171872.77, -181698.80, -0.01, -0.23, 0.51
86, -180932.53, -180908.36, -181455.13, -181029.39, -181353.28, -181062.73, -171844.34, -181632.64, 0.00, 0.00, 0.00
87, -180892.30, -180862.05, -181454.06, -181023.13, -181335.05, -181039.63, -171856.09, -181562.77, 0.00, 0.00, 0.00
88, -180938.14, -180906.09, -181492.52, -181055.73, -181356.06, -181045.59, -171884.48, -181596.66, 0.00, 0.00, 0.00
89, -180936.81, -180904.22, -181482.55, -181050.39, -181351.03, -181070.14, -171879.45, -181657.30, 0.00, 0.00, 0.00
90, -180909.45, -180873.38, -181437.33, -181018.48, -181349.84, -181062.33, -171861.97, -181624.44, 0.00, 0.00, 0.00
91, -180886.92, -180854.55, -181428.36, -181014.97, -181329.44, -181042.69, -171870.09, -181576.33, 0.00, 0.00, 0.00
92, -180928.88, -180895.97, -181464.84, -181046.23, -181348.72, -181042.31, -171898.91, -181583.67, 0.00, 0.00, 0.00
93, -180939.41, -180906.47, -181466.30, -181050.55, -181352.75, -181068.17, -171896.67, -181666.81, 0.00, 0.00, 0.00
94, -180912.53, -180884.92, -181417.39, -181028.72, -181364.59, -181070.78, -171873.78, -181658.14, 0.00, 0.00, 0.00
95, -180890.83, -180863.22, -181398.66, -181027.27, -181342.80, -181048.55, -171876.69, -181586.45, -0.01, -0.25, 0.48
96, -180919.19, -180889.98, -181429.58, -181051.27, -181351.19, -181040.09, -171904.20, -181564.47, 0.00, 0.00, 0.00
97, -180944.00, -180913.72, -181444.66, -181064.97, -181358.14, -181068.66, -171911.00, -181657.98, 0.00, 0.00, 0.00
98, -180916.89, -180881.78, -181397.97, -181032.00, -181360.95, -181076.95, -171883.25, -181664.56, 0.00, 0.00, 0.00
99, -180900.55, -180869.23, -181366.89, -181019.98, -181342.13, -181054.42, -171871.08, -181607.17, 0.00, 0.00, 0.00
100, -180912.64, -180880.19, -181387.02, -181035.63, -181341.34, -181041.88, -171889.05, -181570.55, 0.00, 0.00, 0.00
101, -180944.55, -180910.56, -181411.72, -181056.81, -181354.58, -181055.89, -171900.53, -181635.70, 0.00, 0.00, 0.00
102, -180913.56, -180882.69, -181371.30, -181028.72, -181356.11, -181073.11, -171876.22, -181665.45, 0.00, 0.00, 0.00
103, -180924.11, -180890.22, -181333.58, -181020.83, -181347.55, -181059.34, -171862.17, -181621.58, 0.00, 0.00, 0.00
104, -180918.95, -180881.19, -181339.45, -181029.92, -181333.38, -181042.89, -171871.23, -181579.44, 0.00, 0.00, 0.00
105, -180948.56, -180911.91, -181367.38, -181050.38, -181347.59, -181055.53, -171886.83, -181633.36, 0.00, 0.00, 0.00
106, -180927.23, -180893.20, -181332.70, -181032.45, -181364.16, -181080.97, -171864.02, -181685.03, -0.02, -0.25, 0.48
107, -180908.11, -180878.92, -181290.86, -181019.63, -181350.63, -181060.33, -171847.84, -181608.28, 0.00, 0.00, 0.00
108, -180899.86, -180869.06, -181300.41, -181027.28, -181337.89, -181038.06, -171867.23, -181552.28, 0.00, 0.00, 0.00
109, -180949.19, -180917.00, -181341.06, -181061.47, -181361.53, -181051.72, -171892.83, -181597.13, 0.00, 0.00, 0.00
110, -180936.06, -180904.50, -181326.22, -181053.11, -181350.69, -181067.77, -171880.58, -181650.19, 0.00, 0.00, 0.00
111, -180892.89, -180865.33, -181287.06, -181026.58, -181339.08, -181059.16, -171868.19, -181623.25, 0.00, 0.00, 0.00
112, -180900.33, -180877.02, -181283.23, -181027.27, -181342.16, -181048.47, -171878.56, -181578.95, 0.00, 0.00, 0.00
113, -180941.25, -180915.91, -181318.70, -181058.75, -181359.75, -181045.95, -171903.81, -181584.63, 0.00, 0.00, 0.00
114, -180940.86, -180913.89, -181313.17, -181056.17, -181353.53, -181071.75, -171897.97, -181667.17, 0.00, 0.00, 0.00
115, -180905.20, -180873.69, -181268.84, -181023.86, -181351.00, -181068.41, -171879.30, -181634.69, 0.00, 0.00, 0.00
116, -180902.25, -180867.50, -181258.69, -181019.27, -181336.17, -181052.86, -171885.73, -181587.52, -0.00, -0.23, 0.48
117, -180944.50, -180906.31, -181289.97, -181048.36, -181349.27, -181045.19, -171909.81, -181578.44, 0.00, 0.00, 0.00
118, -180952.97, -180916.48, -181290.61, -181056.92, -181354.69, -181070.02, -171907.50, -181667.16, 0.00, 0.00, 0.00
119, -180932.16, -180899.08, -181063.78, -181038.89, -181368.75, -181083.95, -171876.19, -181674.34, 0.00, 0.00, 0.00
120, -180921.23, -180886.16, -180999.28, -181037.14, -181364.17, -181074.11, -171840.94, -181674.95, 0.00, 0.00, 0.00
121, -180900.80, -180862.06, -181333.11, -181019.39, -181338.00, -181050.70, -171827.42, -181637.89, 0.00, 0.00, 0.00
122, -180915.70, -180878.00, -181843.14, -181034.23, -181358.11, -181073.75, -171808.63, -181693.69, 0.00, 0.00, 0.00
123, -180948.70, -180920.98, -182182.20, -181050.52, -181388.41, -181082.73, -171767.92, -181697.23, 0.00, 0.00, 0.00
124, -180911.70, -180877.89, -182171.67, -181028.14, -181349.52, -181052.64, -171755.77, -181600.00, 0.00, 0.00, 0.00
125, -180906.05, -180867.31, -182189.94, -181035.84, -181343.86, -181040.09, -171777.39, -181568.31, 0.00, 0.00, 0.00
126, -180946.66, -180905.00, -182218.75, -181061.47, -181359.20, -181059.25, -171793.72, -181632.81, 0.00, 0.00, 0.00
127, -180912.98, -180873.89, -182185.64, -181038.70, -181346.80, -181071.83, -171775.14, -181656.69, -0.00, -0.25, 0.48
128, -180887.19, -180853.45, -182152.86, -181018.44, -181333.91, -181049.89, -171768.72, -181589.80, 0.00, 0.00, 0.00
129, -180919.73, -180890.47, -182161.50, -181028.81, -181345.75, -181047.30, -171785.31, -181570.45, 0.00, 0.00, 0.00
130, -180952.19, -180919.39, -182193.38, -181057.59, -181358.42, -181051.00, -171806.44, -181616.13, 0.00, 0.00, 0.00
131, -180932.77, -180900.02, -182171.42, -181044.36, -181351.28, -181073.36, -171792.16, -181655.89, 0.00, 0.00, 0.00
132, -180904.64, -180875.92, -182133.25, -181028.83, -181349.13, -181063.09, -171779.94, -181610.52, 0.00, 0.00, 0.00
133, -180898.88, -180869.97, -182135.06, -181032.45, -181334.69, -181042.02, -171793.63, -181566.66, 0.00, 0.00, 0.00
134, -180943.00, -180912.70, -182170.78, -181062.63, -181355.05, -181048.20, -171817.36, -181599.73, 0.00, 0.00, 0.00
135, -180935.55, -180905.64, -182159.09, -181056.23, -181351.31, -181068.30, -171807.73, -181661.22, 0.00, 0.00, 0.00
136, -180900.64, -180866.98, -182114.98, -181025.86, -181349.63, -181062.92, -171790.50, -181630.77, 0.00, 0.00, 0.00
137, -180887.30, -180856.92, -182106.83, -181023.02, -181339.16, -181051.03, -171795.34, -181582.64, 0.00, -0.24, 0.48
138, -180925.98, -180896.06, -182140.77, -181052.08, -181352.84, -181047.72, -171819.16, -181592.42, 0.00, 0.00, 0.00
139, -180935.22, -180904.94, -182142.42, -181055.09, -181351.86, -181067.23, -171816.77, -181654.78, 0.00, 0.00, 0.00
140, -180911.97, -180881.59, -182099.56, -181025.41, -181350.06, -181067.41, -171799.61, -181633.89, 0.00, 0.00, 0.00
141, -180899.97, -180865.11, -182083.36, -181016.00, -181340.80, -181051.83, -171802.13, -181593.77, 0.00, 0.00, 0.00
142, -180922.64, -180890.97, -182109.89, -181041.02, -181352.13, -181042.34, -171824.88, -181569.50, 0.00, 0.00, 0.00
143, -180944.98, -180912.13, -182121.89, -181052.86, -181355.05, -181066.88, -171829.45, -181653.33, 0.00, 0.00, 0.00
144, -180920.58, -180890.73, -182075.66, -181029.19, -181357.41, -181074.66, -171806.09, -181667.69, 0.00, 0.00, 0.00
145, -180906.78, -180871.41, -182048.14, -181013.78, -181342.95, -181054.52, -171802.36, -181602.39, 0.00, 0.00, 0.00
146, -180921.45, -180885.22, -182067.69, -181029.95, -181342.41, -181042.33, -171820.73, -181579.22, 0.00, 0.00, 0.00
147, -180951.48, -180915.14, -182090.92, -181050.06, -181353.36, -181059.88, -171830.38, -181633.75, 0.00, -0.23, 0.48
148, -180920.13, -180888.34, -182053.64, -181033.91, -181358.19, -181076.97, -171808.91, -181669.25, 0.00, 0.00, 0.00
149, -180899.30, -180870.28, -182020.52, -181027.06, -181348.09, -181057.06, -171798.72, -181600.50, 0.00, 0.00, 0.00
150, -180902.72, -180872.45, -182033.36, -181033.83, -181338.84, -181041.25, -171814.64, -181570.67, 0.00, 0.00, 0.00
151, -180942.75, -180910.83, -182063.69, -181059.16, -181354.67, -181057.55, -171829.86, -181634.20, 0.00, 0.00, 0.00
152, -180930.02, -180898.16, -182031.11, -181042.42, -181363.77, -181078.66, -171809.16, -181682.50, 0.00, 0.00, 0.00
153, -180922.95, -180888.11, -181986.98, -181031.27, -181362.92, -181071.91, -171792.03, -181631.66, 0.00, 0.00, 0.00
154, -180901.06, -180868.00, -181990.16, -181029.61, -181340.88, -181043.67, -171803.33, -181575.64, 0.00, 0.00, 0.00
155, -180944.61, -180911.06, -182025.31, -181059.19, -181358.73, -181053.34, -171825.09, -181614.94, 0.00, 0.00, 0.00
156, -180931.91, -180898.89, -182007.97, -181047.89, -181355.36, -181074.20, -171815.59, -181665.47, 0.00, 0.00, 0.00
157, -180912.39, -180885.48, -181965.28, -181027.27, -181353.58, -181068.95, -171801.00, -181632.27, 0.00, 0.00, 0.00
158, -180903.61, -180879.83, -181960.31, -181028.84, -181340.20, -181051.38, -171807.03, -181587.69, -0.00, -0.25, 0.48
159, -180939.33, -180913.03, -181994.67, -181056.55, -181355.03, -181052.72, -171827.83, -181606.94, 0.00, 0.00, 0.00
160, -180940.34, -180913.50, -181986.88, -181054.63, -181355.83, -181075.19, -171817.11, -181675.70, 0.00, 0.00, 0.00
161, -180915.77, -180884.89, -181940.22, -181032.22, -181359.67, -181070.11, -171795.95, -181638.97, 0.00, 0.00, 0.00
162, -180898.50, -180871.88, -181926.56, -181023.91, -181341.53, -181051.58, -171799.70, -181593.36, 0.00, 0.00, 0.00
163, -180930.23, -180902.77, -181957.98, -181051.05, -181352.91, -181045.23, -171821.45, -181587.20, 0.00, 0.00, 0.00
164, -180946.89, -180918.02, -181965.91, -181059.20, -181357.41, -181072.53, -171823.63, -181658.52, 0.00, 0.00, 0.00
165, -180923.42, -180891.66, -181919.81, -181034.73, -181361.00, -181075.56, -171802.67, -181651.55, 0.00, 0.00, 0.00
166, -180904.16, -180869.08, -181897.70, -181024.05, -181339.83, -181053.91, -171801.22, -181604.55, 0.00, 0.00, 0.00
167, -180922.66, -180891.03, -181922.73, -181043.25, -181346.64, -181045.25, -171822.72, -181575.44, 0.00, 0.00, 0.00
168, -180947.84, -180916.17, -181939.33, -181058.05, -181356.44, -181070.27, -171825.55, -181666.14, -0.00, -0.24, 0.48
169, -180925.89, -180891.70, -181894.41, -181035.83, -181368.34, -181078.67, -171798.41, -181671.67, 0.00, 0.00, 0.00
170, -180900.80, -180863.02, -181862.80, -181028.25, -181351.94, -181063.39, -171787.59, -181615.98, 0.00, 0.00, 0.00
171, -180907.08, -180873.27, -181879.88, -181039.94, -181351.34, -181049.14, -171803.13, -181570.30, 0.00, 0.00, 0.00
172, -180946.08, -180911.53, -181908.50, -181063.56, -181362.63, -181063.88, -171817.61, -181631.63, 0.00, 0.00, 0.00
173, -180923.75, -180891.95, -181874.23, -181044.08, -181355.25, -181076.06, -171797.05, -181671.33, 0.00, 0.00, 0.00
174, -180917.19, -180889.42, -181836.55, -181025.67, -181353.98, -181066.83, -171784.70, -181623.16, 0.00, 0.00, 0.00
175, -180907.44, -180877.84, -181843.19, -181030.59, -181338.67, -181046.78, -171798.77, -181570.56, 0.00, 0.00, 0.00
176, -180946.63, -180915.73, -181874.69, -181058.44, -181355.50, -181058.44, -171816.88, -181627.91, 0.00, 0.00, 0.00
177, -180929.92, -180899.95, -181849.25, -181044.61, -181360.78, -181078.25, -171800.23, -181676.17, 0.00, 0.00, 0.00
178, -180922.69, -180888.28, -181805.81, -181034.58, -181357.48, -181068.66, -171783.59, -181628.34, 0.00, 0.00, 0.00
179, -180905.47, -180871.27, -181805.42, -181031.95, -181349.39, -181050.33, -171790.92, -181580.52, 0.00, -0.24, 0.48
180, -180947.98, -180912.70, -181841.69, -181061.78, -181364.81, -181052.47, -171813.19, -181604.59, 0.00, 0.00, 0.00
181, -180939.13, -180904.89, -181829.16, -181053.44, -181357.20, -181077.22, -171802.97, -181668.94, 0.00, 0.00, 0.00
182, -180906.28, -180873.81, -181785.97, -181024.25, -181352.81, -181067.86, -171785.56, -181638.22, 0.00, 0.00, 0.00
183, -180914.16, -180876.72, -181775.94, -181031.00, -181346.92, -181055.22, -171789.13, -181599.64, 0.00, 0.00, 0.00
184, -180939.48, -180903.64, -181805.59, -181055.81, -181355.86, -181052.97, -171807.11, -181591.47, 0.00, 0.00, 0.00
185, -180946.03, -180910.56, -181804.56, -181057.27, -181357.02, -181075.97, -171800.52, -181674.25, 0.00, 0.00, 0.00
186, -180926.55, -180895.61, -181758.39, -181033.34, -181365.69, -181078.47, -171775.98, -181659.86, 0.00, 0.00, 0.00
187, -180904.11, -180875.19, -181741.67, -181024.52, -181342.06, -181056.19, -171774.88, -181584.61, 0.00, 0.00, 0.00
188, -180931.86, -180901.33, -181772.42, -181049.30, -181353.27, -181047.84, -171796.94, -181581.92, 0.00, 0.00, 0.00
189, -180953.55, -180921.89, -181785.19, -181061.31, -181360.27, -181071.28, -171798.70, -181664.59, -0.01, -0.25, 0.48
190, -180935.36, -180901.17, -181740.86, -181037.41, -181372.06, -181081.84, -171773.48, -181673.34, 0.00, 0.00, 0.00
191, -180908.48, -180875.50, -181715.16, -181025.09, -181350.52, -181063.92, -171767.55, -181605.14, 0.00, 0.00, 0.00
192, -180922.23, -180892.95, -181735.28, -181041.86, -181350.41, -181050.52, -171783.67, -181584.06, 0.00, 0.00, 0.00
193, -180954.48, -180924.78, -181757.16, -181061.22, -181361.73, -181071.00, -171792.17, -181648.47, 0.00, 0.00, 0.00
194, -180924.48, -180894.50, -181719.97, -181040.66, -181363.05, -181080.81, -171771.16, -181665.30, 0.00, 0.00, 0.00
195, -180907.81, -180871.98, -181690.70, -181029.03, -181342.61, -181058.98, -171765.02, -181602.22, 0.00, 0.00, 0.00
196, -180912.98, -180879.98, -181706.38, -181040.34, -181341.31, -181047.92, -171782.06, -181577.61, 0.00, 0.00, 0.00
197, -180953.14, -180919.39, -181736.23, -181065.38, -181359.02, -181063.89, -171795.05, -181629.58, 0.00, 0.00, 0.00
198, -180933.77, -180902.73, -181705.86, -181048.88, -181370.00, -181087.61, -171774.89, -181685.20, 0.00, 0.00, 0.00
199, -180907.03, -180880.25, -181667.80, -181031.91, -181356.73, -181067.66, -171761.61, -181620.92, -0.01, -0.24, 0.48
200, -180897.28, -180871.19, -181671.06, -181033.72, -181347.16, -181058.31, -171772.22, -181602.27, 0.00, 0.00, 0.00
201, -180938.17, -180911.23, -181701.92, -181059.98, -181362.58, -181061.86, -171787.66, -181626.16, 0.00, 0.00, 0.00
202, -180933.75, -180905.05, -181684.41, -181047.64, -181359.20, -181075.70, -171773.84, -181664.38, 0.00, 0.00, 0.00
203, -180917.73, -180884.66, -181644.02, -181020.67, -181360.70, -181072.03, -171759.25, -181625.55, 0.00, 0.00, 0.00
204, -180904.64, -180874.98, -181640.80, -181032.00, -181350.00, -181058.53, -171767.81, -181606.69, 0.00, 0.00, 0.00
205, -180942.55, -180910.92, -181671.13, -181057.39, -181363.52, -181057.59, -171785.13, -181614.88, 0.00, 0.00, 0.00
206, -180943.16, -180911.30, -181663.89, -181053.95, -181361.44, -181080.34, -171774.31, -181673.16, 0.00, 0.00, 0.00
207, -180927.59, -180892.70, -181619.34, -181034.48, -181363.50, -181078.11, -171752.34, -181648.69, 0.00, 0.00, 0.00
208, -180906.91, -180875.81, -181604.52, -181035.67, -181348.91, -181062.95, -171751.38, -181606.22, 0.00, 0.00, 0.00
209, -180934.50, -180901.98, -181631.30, -181057.06, -181355.23, -181059.88, -171767.52, -181610.47, 0.00, 0.00, 0.00
210, -180946.23, -180913.09, -181635.50, -181060.05, -181359.80, -181079.59, -171764.34, -181668.27, -0.00, -0.24, 0.48
211, -180928.36, -180892.39, -181591.94, -181034.53, -181368.70, -181081.36, -171742.95, -181651.50, 0.00, 0.00, 0.00
212, -180907.17, -180871.52, -181572.27, -181032.27, -181350.52, -181062.58, -171742.73, -181610.64, 0.00, 0.00, 0.00
213, -180925.78, -180891.59, -181595.28, -181048.81, -181354.16, -181056.09, -171761.23, -181602.48, 0.00, 0.00, 0.00
214, -180951.89, -180915.48, -181611.41, -181062.47, -181362.25, -181074.27, -171765.47, -181654.08, 0.00, 0.00, 0.00
215, -180935.42, -180896.23, -181570.67, -181047.83, -181373.69, -181087.30, -171743.11, -181674.91, 0.00, 0.00, 0.00
216, -180916.05, -180878.58, -181539.97, -181038.48, -181359.20, -181071.41, -171732.78, -181625.27, 0.00, 0.00, 0.00
217, -180919.73, -180883.97, -181554.34, -181046.48, -181351.41, -181054.59, -171746.22, -181599.52, 0.00, 0.00, 0.00
218, -180952.83, -180915.53, -181578.55, -181066.61, -181361.42, -181072.70, -171755.20, -181650.75, 0.00, 0.00, 0.00
219, -180927.91, -180893.47, -181546.19, -181047.83, -181366.00, -181082.50, -171737.14, -181665.67, 0.00, 0.00, 0.00
220, -180910.03, -180880.09, -181514.13, -181036.34, -181363.64, -181074.05, -171732.11, -181621.86, 0.00, -0.24, 0.48
221, -180917.63, -180887.94, -181521.94, -181041.77, -181352.73, -181055.42, -171745.61, -181588.50, 0.00, 0.00, 0.00
222, -180951.52, -180918.80, -181551.39, -181066.92, -181365.72, -181065.98, -171756.77, -181635.33, 0.00, 0.00, 0.00
223, -180937.50, -180905.78, -181527.55, -181053.80, -181365.67, -181086.31, -171737.19, -181679.33, 0.00, 0.00, 0.00
224, -180941.33, -180906.39, -181485.55, -181046.22, -181369.14, -181075.92, -171721.19, -181635.70, 0.00, 0.00, 0.00
225, -180920.64, -180885.52, -181483.58, -181043.61, -181346.16, -181058.20, -171729.52, -181589.80, 0.00, 0.00, 0.00
226, -180957.13, -180922.05, -181515.09, -181069.17, -181360.63, -181062.22, -171746.22, -181626.38, 0.00, 0.00, 0.00
227, -180948.97, -180914.72, -181503.88, -181062.73, -181358.56, -181076.92, -171736.03, -181668.00, 0.00, 0.00, 0.00
228, -180903.86, -180873.86, -181468.55, -181038.58, -181355.19, -181071.03, -171725.27, -181614.69, 0.00, 0.00, 0.00
229, -180911.34, -180877.81, -181463.69, -181038.66, -181352.34, -181065.27, -171732.30, -181605.50, 0.00, 0.00, 0.00
230, -180950.39, -180914.08, -181491.73, -181062.77, -181366.88, -181060.13, -171746.97, -181611.61, 0.00, 0.00, 0.00
231, -180951.22, -180916.56, -181490.33, -181063.92, -181361.41, -181082.34, -171738.34, -181673.05, 0.00, -0.24, 0.48
232, -180918.64, -180880.84, -181448.27, -181035.09, -181365.20, -181078.45, -171718.92, -181645.30, 0.00, 0.00, 0.00
233, -180899.13, -180865.11, -181434.41, -181028.34, -181350.25, -181063.52, -171722.88, -181609.45, 0.00, 0.00, 0.00
234, -180926.22, -180894.00, -181459.08, -181049.38, -181356.66, -181062.38, -171739.16, -181611.69, 0.00, 0.00, 0.00
235, -180945.34, -180912.16, -181468.70, -181058.83, -181364.08, -181081.27, -171738.30, -181667.50, 0.00, 0.00, 0.00
236, -180931.98, -180896.17, -181430.84, -181042.13, -181372.13, -181086.31, -171722.09, -181647.28, 0.00, 0.00, 0.00
237, -180910.56, -180872.88, -181409.70, -181031.44, -181350.20, -181063.36, -171722.69, -181605.97, 0.00, 0.00, 0.00
238, -180922.45, -180887.16, -181428.64, -181046.58, -181351.59, -181054.56, -171739.25, -181599.58, 0.00, 0.00, 0.00
239, -180949.55, -180913.11, -181445.44, -181061.27, -181361.05, -181079.20, -171741.83, -181666.53, 0.00, 0.00, 0.00
240, -180931.64, -180896.86, -181409.02, -181042.28, -181371.77, -181087.38, -171721.23, -181667.47, 0.00, 0.00, 0.00
241, -180927.28, -180888.19, -181380.58, -181031.84, -181356.55, -181069.83, -171714.64, -181619.78, -0.02, -0.25, 0.48
242, -180919.75, -180883.63, -181390.64, -181038.42, -181353.80, -181062.31, -171724.25, -181612.08, 0.00, 0.00, 0.00
243, -180952.98, -180914.95, -181413.14, -181056.70, -181360.44, -181070.89, -171729.50, -181650.00, 0.00, 0.00, 0.00
244, -180931.52, -180895.17, -181389.78, -181043.33, -181363.86, -181083.81, -171715.73, -181658.08, 0.00, 0.00, 0.00
245, -180910.31, -180879.72, -181360.69, -181035.72, -181363.61, -181076.19, -171710.44, -181618.78, 0.00, 0.00, 0.00
246, -180916.13, -180886.42, -181362.88, -181037.09, -181349.94, -181064.53, -171720.38, -181615.72, 0.00, 0.00, 0.00
247, -180945.86, -180913.31, -181384.63, -181053.38, -181356.86, -181069.44, -171727.83, -181644.28, 0.00, 0.00, 0.00
248, -180935.27, -180903.14, -181365.28, -181042.80, -181366.20, -181083.48, -171712.95, -181672.11, 0.00, 0.00, 0.00
249, -180936.52, -180896.27, -181329.02, -181029.41, -181366.11, -181080.30, -171700.59, -181632.86, 0.00, 0.00, 0.00
250, -180920.25, -180878.73, -181322.11, -181024.14, -181346.25, -181062.61, -171703.97, -181607.42, 0.00, 0.00, 0.00
251, -180941.95, -180901.41, -181342.63, -181040.50, -181349.48, -181064.59, -171710.81, -181643.28, -0.01, -0.24, 0.48
252, -180939.28, -180898.41, -181334.88, -181037.81, -181363.30, -181080.89, -171700.19, -181666.55, 0.00, 0.00, 0.00
253, -180928.22, -180886.17, -181299.78, -181024.92, -181361.75, -181077.72, -171689.05, -181629.75, 0.00, 0.00, 0.00
254, -180914.25, -180872.34, -181285.78, -181021.45, -181354.22, -181069.11, -171689.89, -181625.64, 0.00, 0.00, 0.00
255, -180924.67, -180882.84, -181297.23, -181033.86, -181354.34, -181069.75, -171688.58, -181661.98, 0.00, 0.00, 0.00
0, -180930.30, -180888.11, -181285.41, -181030.02, -181362.41, -181080.13, -171675.39, -181675.89, 0.00, 0.00, 0.00
1, -180951.09, -180919.44, -181066.63, -181057.11, -181386.86, -181089.16, -171657.28, -181667.80, 0.00, 0.00, 0.00
2, -180957.48, -180925.72, -180999.91, -181062.67, -181381.05, -181089.63, -171624.78, -181696.59, 0.00, 0.00, 0.00
3, -180910.36, -180870.13, -181309.52, -181034.64, -181363.19, -181075.47, -171591.31, -181704.97, 0.00, 0.00, 0.00
4, -180926.34, -180891.81, -181735.88, -181053.28, -181384.22, -181088.03, -171547.86, -181740.89, 0.00, 0.00, 0.00
5, -180969.53, -180945.23, -182182.27, -181055.06, -181384.48, -181084.69, -171508.44, -181682.45, 0.00, 0.00, 0.00
6, -180908.36, -180875.98, -182224.63, -181030.28, -181342.69, -181059.66, -171502.34, -181602.47, 0.00, -0.24, 0.48
7, -180901.45, -180865.59, -182229.09, -181028.53, -181333.97, -181055.22, -171506.36, -181633.69, 0.00, 0.00, 0.00
8, -180918.30, -180880.45, -182233.34, -181030.45, -181346.52, -181066.06, -171497.20, -181673.14, 0.00, 0.00, 0.00
9, -180904.98, -180870.80, -182208.69, -181020.17, -181354.53, -181063.19, -171492.69, -181608.91, 0.00, 0.00, 0.00
10, -180903.17, -180873.53, -182187.52, -181029.45, -181341.97, -181056.75, -171501.00, -181599.06, 0.00, 0.00, 0.00
11, -180892.80, -180861.33, -182188.55, -181030.73, -181331.63, -181052.34, -171510.25, -181616.61, 0.00, 0.00, 0.00
12, -180915.27, -180881.13, -182201.33, -181036.25, -181342.58, -181063.63, -171510.77, -181661.27, 0.00, 0.00, 0.00
13, -180915.27, -180882.52, -182184.13, -181029.98, -181361.56, -181071.45, -171502.92, -181638.63, 0.00, 0.00, 0.00
14, -180909.11, -180881.06, -182158.98, -181027.17, -181344.77, -181060.28, -171506.84, -181598.70, 0.00, 0.00, 0.00
15, -180890.94, -180862.89, -182156.70, -181025.47, -181331.34, -181054.63, -171516.91, -181604.23, 0.00, 0.00, 0.00
16, -180911.66, -180881.13, -182166.59, -181031.42, -181338.38, -181065.19, -171514.08, -181667.17, 0.00, -0.24, 0.49
17, -180915.75, -180883.92, -182152.58, -181028.89, -181354.31, -181068.86, -171503.63, -181642.50, 0.00, 0.00, 0.00
18, -180919.34, -180883.91, -182123.81, -181033.83, -181352.19, -181063.63, -171503.50, -181607.34, 0.00, 0.00, 0.00
19, -180904.70, -180873.11, -182115.77, -181025.08, -181341.53, -181056.48, -171513.52, -181609.97, 0.00, 0.00, 0.00
20, -180925.78, -180893.47, -182126.91, -181030.38, -181343.08, -181059.72, -171514.55, -181663.81, 0.00, 0.00, 0.00
21, -180921.67, -180886.45, -182120.98, -181032.34, -181350.67, -181069.33, -171506.30, -181647.50, 0.00, 0.00, 0.00
22, -180923.89, -180887.13, -182092.48, -181032.56, -181359.25, -181067.77, -171505.84, -181611.47, 0.00, 0.00, 0.00
23, -180913.14, -180875.66, -182078.33, -181025.34, -181341.50, -181056.50, -171513.78, -181609.95, 0.00, 0.00, 0.00
24, -180914.88, -180878.58, -182086.17, -181028.58, -181339.72, -181057.50, -171518.20, -181643.55, 0.00, 0.00, 0.00
25, -180923.03, -180885.38, -182084.92, -181028.98, -181348.44, -181064.97, -171512.11, -181655.48, 0.00, 0.00, 0.00
26, -180901.53, -180866.44, -182059.13, -181024.89, -181346.20, -181063.72, -171512.03, -181600.08, 0.00, 0.00, 0.00
27, -180911.89, -180873.14, -182044.56, -181017.77, -181336.48, -181054.28, -171523.80, -181591.52, 0.00, -0.24, 0.49
28, -180912.31, -180874.16, -182052.31, -181022.55, -181331.98, -181048.55, -171534.02, -181629.39, 0.00, 0.00, 0.00
29, -180925.08, -180885.17, -182057.33, -181027.84, -181343.52, -181062.61, -171529.22, -181664.52, 0.00, 0.00, 0.00
30, -180913.88, -180877.94, -182032.02, -181029.39, -181357.42, -181066.20, -171523.44, -181625.23, 0.00, 0.00, 0.00
31, -180909.25, -180878.89, -182010.30, -181024.36, -181346.88, -181056.64, -171528.00, -181599.69, 0.00, 0.00, 0.00
32, -180895.83, -180864.66, -182011.19, -181020.78, -181336.48, -181053.23, -171535.19, -181621.70, 0.00, 0.00, 0.00
33, -180915.17, -180881.31, -182019.66, -181026.39, -181339.61, -181057.48, -171532.00, -181653.52, 0.00, 0.00, 0.00
34, -180916.52, -180880.50, -181998.22, -181028.72, -181359.09, -181067.83, -171523.69, -181636.61, 0.00, 0.00, 0.00
35, -180905.78, -180869.69, -181974.58, -181025.23, -181345.86, -181057.48, -171529.58, -181594.86, 0.00, 0.00, 0.00
36, -180899.34, -180867.09, -181975.31, -181021.56, -181339.23, -181053.45, -171541.14, -181615.45, 0.00, 0.00, 0.00
37, -180917.47, -180880.44, -181985.70, -181027.75, -181335.22, -181054.06, -171541.08, -181648.39, -0.02, -0.24, 0.48
38, -180909.11, -180874.69, -181971.98, -181023.39, -181343.97, -181058.06, -171538.66, -181617.81, 0.00, 0.00, 0.00
39, -180909.88, -180879.11, -181946.25, -181020.33, -181346.64, -181058.52, -171545.97, -181604.88, 0.00, 0.00, 0.00
40, -180915.92, -180878.27, -181936.83, -181012.52, -181334.02, -181051.19, -171553.14, -181616.67, 0.00, 0.00, 0.00
41, -180918.64, -180881.38, -181946.86, -181019.08, -181330.80, -181052.91, -171555.33, -181651.64, 0.00, 0.00, 0.00
42, -180914.36, -180877.33, -181938.36, -181023.95, -181349.89, -181060.95, -171548.50, -181637.00, 0.00, 0.00, 0.00
43, -180894.27, -180863.14, -181912.03, -181025.09, -181345.03, -181055.52, -171552.81, -181592.70, 0.00, 0.00, 0.00
44, -180896.11, -180867.25, -181903.70, -181015.63, -181335.25, -181053.59, -171564.25, -181604.47, 0.00, 0.00, 0.00
45, -180904.33, -180872.81, -181913.63, -181022.19, -181331.77, -181052.70, -171568.78, -181637.09, 0.00, 0.00, 0.00
46, -180911.14, -180878.38, -181910.34, -181024.06, -181350.92, -181063.39, -171562.81, -181652.16, 0.00, 0.00, 0.00
47, -180926.81, -180891.92, -181881.55, -181035.98, -181361.53, -181067.34, -171559.83, -181620.97, 0.00, -0.24, 0.48
48, -180897.41, -180863.45, -181864.94, -181026.39, -181339.98, -181048.09, -171566.02, -181590.73, 0.00, 0.00, 0.00
49, -180900.91, -180868.33, -181873.09, -181028.22, -181331.69, -181050.58, -171574.53, -181635.66, 0.00, 0.00, 0.00
50, -180913.53, -180878.53, -181876.52, -181030.89, -181338.25, -181056.70, -171572.78, -181640.28, 0.00, 0.00, 0.00
51, -180905.11, -180867.56, -181852.44, -181018.48, -181351.70, -181056.81, -171574.02, -181601.14, 0.00, 0.00, 0.00
52, -180901.73, -180865.77, -181837.72, -181020.20, -181335.31, -181050.27, -171587.78, -181595.11, 0.00, 0.00, 0.00
53, -180898.41, -180865.33, -181843.02, -181028.22, -181328.34, -181048.77, -171599.72, -181625.06, 0.00, 0.00, 0.00
54, -180914.72, -180878.56, -181849.89, -181031.16, -181336.98, -181053.34, -171600.39, -181644.17, 0.00, 0.00, 0.00
55, -180902.36, -180869.38, -181828.63, -181023.23, -181347.28, -181056.14, -171601.05, -181605.77, 0.00, 0.00, 0.00
56, -180893.11, -180866.31, -181806.48, -181021.91, -181342.63, -181046.91, -171610.83, -181577.75, 0.00, 0.00, 0.00
57, -180881.69, -180854.80, -181808.23, -181021.39, -181326.22, -181045.88, -171622.52, -181620.77, 0.00, 0.00, 0.00
58, -180901.84, -180872.20, -181818.45, -181028.16, -181330.84, -181053.75, -171624.59, -181653.72, -0.01, -0.23, 0.48
59, -180908.89, -180879.16, -181800.95, -181025.63, -181351.70, -181062.53, -171621.78, -181632.66, 0.00, 0.00, 0.00
60, -180915.22, -180878.98, -181776.83, -181024.88, -181344.95, -181057.94, -171628.44, -181606.16, 0.00, 0.00, 0.00
61, -180889.52, -180856.61, -181774.45, -181025.34, -181331.94, -181045.44, -171641.41, -181601.34, 0.00, 0.00, 0.00
62, -180909.67, -180876.41, -181787.42, -181032.41, -181332.45, -181051.84, -171647.42, -181642.27, 0.00, 0.00, 0.00
63, -180913.98, -180877.31, -181774.80, -181026.95, -181352.89, -181064.69, -171642.02, -181639.30, 0.00, 0.00, 0.00
64, -180905.42, -180866.59, -181746.28, -181021.67, -181346.67, -181055.97, -171643.28, -181601.19, 0.00, 0.00, 0.00
65, -180900.58, -180868.00, -181738.58, -181026.25, -181339.56, -181054.13, -171654.63, -181611.61, 0.00, 0.00, 0.00
66, -180916.95, -180882.95, -181748.75, -181034.42, -181337.28, -181056.03, -171658.80, -181644.44, 0.00, 0.00, 0.00
67, -180914.70, -180878.47, -181744.48, -181030.17, -181342.22, -181057.97, -171655.38, -181627.20, 0.00, 0.00, 0.00
68, -180909.25, -180869.59, -181721.05, -181017.97, -181346.77, -181057.81, -171658.75, -181598.84, -0.01, -0.24, 0.48
69, -180895.98, -180858.00, -181711.83, -181015.13, -181335.25, -181050.11, -171668.25, -181591.09, 0.00, 0.00, 0.00
70, -180907.28, -180871.61, -181723.61, -181024.61, -181336.80, -181051.19, -171675.25, -181629.11, 0.00, 0.00, 0.00
71, -180916.56, -180880.23, -181724.58, -181028.19, -181344.33, -181061.89, -171670.42, -181656.89, 0.00, 0.00, 0.00
72, -180900.03, -180867.25, -181696.59, -181025.66, -181352.55, -181059.66, -171666.80, -181606.17, 0.00, 0.00, 0.00
73, -180913.42, -180883.36, -181679.53, -181024.38, -181348.28, -181061.95, -171673.81, -181618.02, 0.00, 0.00, 0.00
74, -180930.45, -180899.64, -181684.30, -181024.14, -181343.14, -181057.11, -171679.81, -181623.97, 0.00, 0.00, 0.00
75, -180934.22, -180898.63, -181691.67, -181029.83, -181338.83, -181059.97, -171678.36, -181641.02, 0.00, 0.00, 0.00
76, -180911.23, -180875.81, -181670.19, -181020.69, -181346.61, -181058.09, -171677.34, -181603.83, 0.00, 0.00, 0.00
77, -180902.97, -180862.84, -181651.80, -181021.75, -181340.69, -181056.55, -171684.69, -181593.33, 0.00, 0.00, 0.00
78, -180903.17, -180867.22, -181656.84, -181025.23, -181331.36, -181050.53, -171694.11, -181605.89, 0.00, 0.00, 0.00
79, -180924.20, -180887.61, -181669.52, -181034.75, -181340.41, -181061.91, -171695.03, -181659.03, 0.00, -0.24, 0.48
80, -180914.66, -180882.06, -181644.86, -181030.81, -181365.53, -181074.36, -171684.38, -181649.58, 0.00, 0.00, 0.00
81, -180912.55, -180883.98, -181614.94, -181038.94, -181361.06, -181065.69, -171682.61, -181613.86, 0.00, 0.00, 0.00
82, -180893.94, -180862.98, -181615.77, -181033.14, -181340.28, -181053.45, -171693.47, -181599.14, 0.00, 0.00, 0.00
83, -180922.70, -180890.14, -181636.77, -181048.81, -181346.16, -181056.80, -171702.83, -181631.31, 0.00, 0.00, 0.00
84, -180916.20, -180883.92, -181624.59, -181043.00, -181348.84, -181067.27, -171698.36, -181630.14, 0.00, 0.00, 0.00
85, -180903.48, -180876.05, -181597.13, -181026.77, -181341.86, -181059.50, -171699.05, -181599.63, 0.00, 0.00, 0.00
86, -180904.73, -180869.69, -181593.45, -181026.69, -181342.95, -181055.52, -171710.72, -181603.77, 0.00, 0.00, 0.00
87, -180929.34, -180893.28, -181615.30, -181045.44, -181347.50, -181058.58, -171723.75, -181627.23, 0.00, 0.00, 0.00
88, -180928.78, -180892.58, -181606.06, -181041.88, -181357.00, -181072.55, -171716.41, -181658.67, 0.00, 0.00, 0.00
89, -180914.72, -180875.31, -181569.63, -181028.50, -181359.45, -181070.20, -171706.91, -181625.38, -0.01, -0.24, 0.48
90, -180898.11, -180863.63, -181559.50, -181025.66, -181341.64, -181056.33, -171715.02, -181593.36, 0.00, 0.00, 0.00
91, -180923.66, -180887.47, -181585.52, -181045.69, -181349.47, -181052.41, -171734.39, -181598.22, 0.00, 0.00, 0.00
92, -180938.22, -180900.95, -181591.31, -181052.98, -181353.47, -181069.44, -171736.81, -181646.45, 0.00, 0.00, 0.00
93, -180927.58, -180894.98, -181553.17, -181030.73, -181362.70, -181074.22, -171724.36, -181646.83, 0.00, 0.00, 0.00
94, -180902.34, -180873.13, -181534.00, -181027.39, -181348.39, -181063.73, -171726.70, -181612.41, 0.00, 0.00, 0.00
95, -180919.94, -180889.89, -181554.97, -181043.30, -181354.19, -181055.25, -171745.97, -181593.44, 0.00, 0.00, 0.00
96, -180942.34, -180910.81, -181568.00, -181055.88, -181357.98, -181072.58, -171749.50, -181660.28, 0.00, 0.00, 0.00
97, -180921.55, -180890.56, -181529.38, -181038.33, -181362.56, -181077.59, -171731.55, -181641.72, 0.00, 0.00, 0.00
98, -180907.17, -180871.22, -181504.31, -181024.69, -181346.80, -181063.08, -171729.03, -181609.13, 0.00, 0.00, 0.00
99, -180913.36, -180881.13, -181522.06, -181038.42, -181344.92, -181053.22, -171747.25, -181580.38, -0.01, -0.25, 0.48
100, -180950.06, -180916.31, -181549.13, -181062.92, -181361.75, -181067.27, -171762.25, -181646.34, 0.00, 0.00, 0.00
101, -180930.53, -180898.88, -181514.69, -181045.92, -181370.31, -181087.77, -171744.16, -181669.34, 0.00, 0.00, 0.00
102, -180913.66, -180888.28, -181479.08, -181027.08, -181359.56, -181067.42, -171733.72, -181621.58, 0.00, 0.00, 0.00
103, -180906.78, -180881.78, -181488.31, -181033.98, -181353.05, -181053.73, -171748.77, -181578.77, 0.00, 0.00, 0.00
104, -180948.41, -180921.94, -181520.41, -181063.19, -181367.61, -181063.25, -171767.83, -181617.66, 0.00, 0.00, 0.00
105, -180940.31, -180911.66, -181493.61, -181053.13, -181370.03, -181087.59, -171749.84, -181692.55, 0.00, 0.00, 0.00
106, -180916.64, -180883.98, -181448.70, -181038.16, -181365.48, -181074.20, -171732.84, -181635.88, 0.00, 0.00, 0.00
107, -180918.55, -180880.72, -181449.02, -181034.75, -181345.19, -181055.53, -171747.52, -181579.95, 0.00, 0.00, 0.00
108, -180962.22, -180924.16, -181488.48, -181068.38, -181368.59, -181059.67, -171775.86, -181592.66, 0.00, 0.00, 0.00
109, -180954.73, -180918.44, -181474.86, -181062.41, -181367.45, -181083.08, -171766.25, -181682.11, 0.00, 0.00, 0.00
110, -180934.61, -180905.31, -181427.41, -181036.63, -181368.89, -181081.28, -171742.33, -181653.00, -0.01, -0.24, 0.48
111, -180912.47, -180884.56, -181418.13, -181029.44, -181350.41, -181058.64, -171746.86, -181590.95, 0.00, 0.00, 0.00
112, -180951.61, -180922.70, -181453.84, -181061.27, -181366.92, -181057.91, -171775.25, -181590.02, 0.00, 0.00, 0.00
113, -180958.42, -180928.45, -181453.36, -181064.39, -181367.14, -181079.39, -171774.17, -181664.84, 0.00, 0.00, 0.00
114, -180922.56, -180887.61, -181403.33, -181039.53, -181367.59, -181082.58, -171751.05, -181664.95, 0.00, 0.00, 0.00
115, -180923.64, -180883.78, -181383.59, -181037.36, -181364.84, -181069.84, -171750.06, -181620.81, 0.00, 0.00, 0.00
116, -180953.02, -180913.83, -181415.98, -181062.13, -181377.38, -181060.55, -171778.42, -181582.02, 0.00, 0.00, 0.00
117, -180971.72, -180933.28, -181430.98, -181075.95, -181379.28, -181080.44, -171786.66, -181664.75, 0.00, 0.00, 0.00
118, -180925.05, -180889.02, -181384.89, -181043.80, -181363.66, -181080.38, -171763.22, -181663.59, 0.00, 0.00, 0.00
119, -180919.80, -180888.64, -181358.89, -181036.55, -181355.08, -181067.36, -171756.30, -181613.45, 0.00, 0.00, 0.00
120, -180936.45, -180905.56, -181382.34, -181055.69, -181357.78, -181053.97, -171774.61, -181565.03, 0.00, -0.24, 0.48
121, -180970.25, -180938.08, -181408.56, -181080.22, -181373.27, -181075.36, -171789.13, -181653.45, 0.00, 0.00, 0.00
122, -180941.97, -180908.06, -181364.48, -181046.83, -181372.17, -181092.69, -171762.02, -181690.22, 0.00, 0.00, 0.00
123, -180922.92, -180884.95, -181328.56, -181028.03, -181362.03, -181073.02, -171749.06, -181626.05, 0.00, 0.00, 0.00
124, -180926.22, -180890.84, -181344.77, -181050.67, -181362.45, -181058.67, -171768.84, -181566.25, 0.00, 0.00, 0.00
125, -180972.95, -180936.97, -181382.09, -181080.58, -181381.88, -181069.39, -171792.16, -181614.33, 0.00, 0.00, 0.00
126, -180940.98, -180905.53, -181348.92, -181055.36, -181366.31, -181086.98, -171771.61, -181684.41, 0.00, 0.00, 0.00
127, -180914.75, -180874.83, -181307.63, -181024.73, -181356.42, -181070.30, -171757.81, -181637.17, 0.00, 0.00, 0.00
128, -180917.30, -180883.14, -181310.75, -181031.16, -181359.30, -181066.27, -171767.88, -181591.75, 0.00, 0.00, 0.00
129, -180961.19, -180927.34, -181351.00, -181067.03, -181376.48, -181065.39, -171795.66, -181591.28, 0.00, 0.00, 0.00
130, -180945.44, -180911.73, -181329.75, -181051.97, -181369.78, -181088.28, -171781.23, -181694.67, 0.00, 0.00, 0.00
131, -180925.03, -180886.78, -181281.63, -181016.63, -181366.16, -181078.16, -171758.75, -181641.42, 0.00, -0.26, 0.48
132, -180912.38, -180875.20, -181279.55, -181018.13, -181347.28, -181055.50, -171769.19, -181588.56, 0.00, 0.00, 0.00
133, -180957.69, -180920.98, -181321.33, -181055.34, -181372.16, -181057.08, -171802.14, -181577.50, 0.00, 0.00, 0.00
134, -180956.14, -180919.28, -181310.38, -181053.50, -181373.72, -181090.08, -171795.64, -181694.13, 0.00, 0.00, 0.00
135, -180941.91, -180908.05, -181091.08, -181053.97, -181383.86, -181096.73, -171760.47, -181699.84, 0.00, 0.00, 0.00
136, -180941.59, -180902.11, -181003.02, -181056.36, -181375.84, -181080.50, -171728.16, -181679.13, 0.00, 0.00, 0.00
137, -180929.44, -180887.45, -181338.58, -181050.11, -181354.92, -181060.45, -171719.42, -181639.55, 0.00, 0.00, 0.00
138, -180945.44, -180909.88, -181819.52, -181052.97, -181386.50, -181084.11, -171689.73, -181733.33, 0.00, 0.00, 0.00
139, -180966.28, -180941.77, -182174.67, -181063.00, -181397.16, -181085.17, -171637.00, -181719.70, 0.00, 0.00, 0.00
140, -180908.78, -180873.02, -182178.88, -181030.19, -181342.63, -181066.56, -171626.02, -181610.83, 0.00, 0.00, 0.00
141, -180928.95, -180890.56, -182205.64, -181048.67, -181350.92, -181048.98, -171651.09, -181574.77, 0.00, -0.24, 0.48
142, -180956.94, -180917.47, -182225.41, -181067.39, -181362.66, -181069.75, -171660.45, -181652.33, 0.00, 0.00, 0.00
143, -180929.75, -180893.91, -182180.92, -181038.00, -181369.92, -181081.84, -171635.11, -181667.58, 0.00, 0.00, 0.00
144, -180911.30, -180880.19, -182147.98, -181025.30, -181355.95, -181063.89, -171624.58, -181603.98, 0.00, 0.00, 0.00
145, -180918.44, -180884.81, -182166.98, -181040.77, -181349.36, -181047.14, -171644.27, -181571.58, 0.00, 0.00, 0.00
146, -180956.52, -180921.88, -182195.23, -181066.11, -181365.89, -181064.53, -171659.25, -181646.03, 0.00, 0.00, 0.00
147, -180923.63, -180889.69, -182160.20, -181040.55, -181356.28, -181078.31, -171638.19, -181659.17, 0.00, 0.00, 0.00
148, -180902.66, -180863.94, -182129.00, -181019.66, -181346.38, -181063.16, -171632.06, -181611.69, 0.00, 0.00, 0.00
149, -180906.88, -180873.03, -182139.06, -181031.44, -181346.83, -181054.31, -171649.13, -181581.08, 0.00, 0.00, 0.00
150, -180949.38, -180914.39, -182171.16, -181060.86, -181362.78, -181061.95, -171668.20, -181621.28, 0.00, 0.00, 0.00
151, -180933.39, -180900.13, -182145.30, -181050.00, -181364.69, -181081.88, -171650.14, -181680.36, 0.00, -0.24, 0.48
152, -180920.75, -180891.16, -182101.20, -181036.66, -181364.19, -181074.84, -171631.39, -181638.34, 0.00, 0.00, 0.00
153, -180930.06, -180890.72, -182098.45, -181032.30, -181348.28, -181060.59, -171637.75, -181607.98, 0.00, 0.00, 0.00
154, -180957.73, -180918.45, -182130.81, -181059.27, -181361.16, -181055.84, -171658.11, -181600.36, 0.00, 0.00, 0.00
155, -180947.89, -180909.52, -182119.23, -181051.81, -181356.73, -181076.03, -171649.66, -181657.73, 0.00, 0.00, 0.00
156, -180904.22, -180868.34, -182081.50, -181026.53, -181351.03, -181067.36, -171637.66, -181621.73, 0.00, 0.00, 0.00
157, -180913.50, -180872.30, -182075.67, -181026.02, -181346.89, -181057.08, -171646.33, -181590.30, 0.00, 0.00, 0.00
158, -180947.17, -180907.59, -182106.45, -181052.31, -181359.67, -181058.20, -171667.78, -181606.89, 0.00, 0.00, 0.00
159, -180947.92, -180910.03, -182103.09, -181054.02, -181364.59, -181085.61, -171660.83, -181680.34, 0.00, 0.00, 0.00
160, -180923.11, -180889.67, -182056.77, -181039.20, -181367.88, -181079.56, -171638.02, -181650.25, 0.00, 0.00, 0.00
161, -180912.88, -180884.33, -182039.66, -181032.50, -181341.31, -181057.11, -171638.34, -181601.02, 0.00, 0.00, 0.00
162, -180934.33, -180902.94, -182067.30, -181052.98, -181351.30, -181052.67, -171659.78, -181593.95, 0.00, -0.23, 0.48
163, -180953.72, -180920.64, -182079.25, -181063.50, -181357.80, -181073.83, -171661.64, -181663.64, 0.00, 0.00, 0.00
164, -180922.75, -180890.03, -182038.88, -181042.70, -181370.28, -181080.13, -171642.92, -181653.56, 0.00, 0.00, 0.00
165, -180920.42, -180883.70, -182013.84, -181031.52, -181356.22, -181065.64, -171639.59, -181613.70, 0.00, 0.00, 0.00
166, -180931.20, -180897.16, -182034.41, -181048.19, -181357.88, -181054.91, -171658.64, -181581.20, 0.00, 0.00, 0.00
167, -180960.91, -180925.61, -182056.50, -181067.86, -181367.41, -181068.61, -171668.86, -181650.47, 0.00, 0.00, 0.00
168, -180927.28, -180894.47, -182016.86, -181040.34, -181362.86, -181080.28, -171647.11, -181669.70, 0.00, 0.00, 0.00
169, -180918.39, -180885.42, -181985.44, -181030.06, -181352.59, -181067.52, -171640.22, -181625.48, 0.00, 0.00, 0.00
170, -180940.98, -180903.44, -181998.05, -181042.11, -181358.38, -181056.80, -171655.63, -181575.63, 0.00, 0.00, 0.00
171, -180971.36, -180934.95, -182029.27, -181068.39, -181368.55, -181067.11, -171673.58, -181639.02, 0.00, 0.00, 0.00
172, -180940.63, -180904.70, -182000.19, -181051.09, -181361.13, -181084.44, -171657.30, -181673.28, -0.00, -0.25, 0.48
173, -180906.55, -180874.16, -181963.44, -181034.89, -181354.47, -181067.86, -171647.41, -181614.64, 0.00, 0.00, 0.00
174, -180924.31, -180896.78, -181969.69, -181039.58, -181345.16, -181049.66, -171662.22, -181573.47, 0.00, 0.00, 0.00
175, -180963.92, -180933.66, -182006.36, -181072.73, -181365.89, -181062.72, -171686.63, -181616.83, 0.00, 0.00, 0.00
176, -180949.19, -180917.83, -181983.14, -181059.78, -181369.42, -181089.83, -171670.33, -181694.67, 0.00, 0.00, 0.00
177, -180918.61, -180882.98, -181934.50, -181043.11, -181376.58, -181080.80, -171648.78, -181654.19, 0.00, 0.00, 0.00
178, -180900.63, -180870.67, -181930.77, -181042.31, -181349.33, -181055.00, -171659.05, -181572.13, 0.00, 0.00, 0.00
179, -180948.42, -180918.67, -181972.27, -181076.55, -181371.91, -181057.06, -171691.72, -181590.06, 0.00, 0.00, 0.00
180, -180948.92, -180917.50, -181966.13, -181073.16, -181363.97, -181078.50, -171687.28, -181676.05, 0.00, 0.00, 0.00
181, -180919.06, -180884.33, -181917.22, -181037.13, -181354.81, -181074.09, -171665.55, -181640.44, 0.00, 0.00, 0.00
182, -180904.38, -180871.94, -181910.14, -181035.25, -181340.34, -181050.95, -171675.03, -181581.52, 0.00, 0.00, 0.00
183, -180947.41, -180915.34, -181950.19, -181071.61, -181364.80, -181051.81, -171709.06, -181572.89, -0.03, -0.24, 0.48
184, -180960.03, -180928.89, -181955.42, -181078.98, -181368.23, -181081.02, -171711.84, -181674.23, 0.00, 0.00, 0.00
185, -180922.66, -180891.03, -181905.38, -181041.48, -181362.78, -181080.80, -171687.28, -181666.23, 0.00, 0.00, 0.00
186, -180906.86, -180872.88, -181885.61, -181028.53, -181350.97, -181061.00, -171688.91, -181602.31, 0.00, 0.00, 0.00
187, -180936.06, -180906.23, -181919.30, -181060.05, -181369.63, -181057.33, -171721.98, -181562.78, 0.00, 0.00, 0.00
188, -180971.66, -180939.88, -181946.44, -181085.09, -181382.34, -181076.38, -171741.20, -181642.27, 0.00, 0.00, 0.00
189, -180931.36, -180899.08, -181900.92, -181050.78, -181365.94, -181088.13, -171715.95, -181678.80, 0.00, 0.00, 0.00
190, -180919.86, -180883.14, -181871.38, -181030.34, -181352.70, -181069.95, -171710.63, -181615.66, 0.00, 0.00, 0.00
191, -180935.53, -180902.66, -181896.33, -181054.56, -181366.50, -181063.23, -171739.84, -181567.11, 0.00, 0.00, 0.00
192, -180980.48, -180946.73, -181932.11, -181088.59, -181386.02, -181074.73, -171766.17, -181627.00, 0.00, 0.00, 0.00
193, -180942.84, -180910.91, -181893.19, -181058.78, -181366.92, -181087.80, -171744.25, -181684.09, -0.01, -0.26, 0.48
194, -180915.58, -180888.70, -181855.19, -181040.23, -181362.14, -181074.97, -171730.91, -181636.38, 0.00, 0.00, 0.00
195, -180925.09, -180899.14, -181870.70, -181059.20, -181360.84, -181065.70, -171754.02, -181560.22, 0.00, 0.00, 0.00
196, -180981.64, -180953.81, -181918.11, -181100.84, -181392.52, -181074.19, -171790.56, -181589.56, 0.00, 0.00, 0.00
197, -180954.89, -180927.23, -181890.23, -181081.47, -181375.17, -181091.61, -171774.22, -181694.44, 0.00, 0.00, 0.00
198, -180914.03, -180884.08, -181843.89, -181047.53, -181361.58, -181077.08, -171756.09, -181649.30, 0.00, 0.00, 0.00
199, -180923.08, -180893.58, -181848.09, -181054.06, -181362.05, -181068.64, -171770.06, -181585.20, 0.00, 0.00, 0.00
200, -180971.58, -180944.42, -181894.48, -181096.83, -181390.48, -181072.13, -171806.55, -181588.53, 0.00, 0.00, 0.00
201, -180963.78, -180936.00, -181878.69, -181086.58, -181381.27, -181093.05, -171797.67, -181695.00, 0.00, 0.00, 0.00
202, -180938.69, -180907.34, -181824.80, -181044.67, -181371.59, -181086.86, -171772.22, -181662.13, 0.00, 0.00, 0.00
203, -180918.50, -180889.58, -181816.64, -181051.78, -181357.78, -181068.61, -171781.52, -181585.55, 0.00, -0.23, 0.48
204, -180968.70, -180939.64, -181863.48, -181095.03, -181388.17, -181069.00, -171822.03, -181568.00, 0.00, 0.00, 0.00
205, -180975.52, -180946.16, -181864.72, -181097.61, -181384.80, -181090.77, -171822.45, -181689.75, 0.00, 0.00, 0.00
206, -180933.05, -180900.80, -181808.23, -181052.91, -181371.91, -181091.72, -171791.92, -181677.83, 0.00, 0.00, 0.00
207, -180916.22, -180883.50, -181788.66, -181039.64, -181359.92, -181069.03, -171792.06, -181612.48, 0.00, 0.00, 0.00
208, -180951.14, -180921.86, -181826.25, -181075.55, -181377.63, -181063.67, -171826.03, -181566.25, 0.00, 0.00, 0.00
209, -180977.08, -180946.58, -181842.66, -181093.42, -181387.94, -181086.55, -171836.27, -181679.05, 0.00, 0.00, 0.00
210, -180949.23, -180915.77, -181786.03, -181059.61, -181384.73, -181101.03, -171802.72, -181706.06, 0.00, 0.00, 0.00
211, -180913.72, -180880.91, -181756.73, -181040.05, -181360.30, -181070.98, -171795.45, -181609.34, 0.00, 0.00, 0.00
212, -180942.44, -180911.48, -181790.36, -181068.86, -181372.58, -181065.31, -171830.30, -181554.97, 0.00, 0.00, 0.00
213, -180983.00, -180951.63, -181822.03, -181098.83, -181393.63, -181082.52, -171855.30, -181646.55, 0.00, 0.00, 0.00
214, -180951.25, -180918.30, -181772.63, -181066.05, -181380.36, -181100.06, -171824.88, -181716.45, -0.01, -0.24, 0.48
215, -180927.28, -180891.72, -181733.09, -181043.95, -181363.34, -181077.11, -171810.02, -181633.83, 0.00, 0.00, 0.00
216, -180932.16, -180900.38, -181751.89, -181059.77, -181374.34, -181064.59, -171833.44, -181560.75, 0.00, 0.00, 0.00
217, -180983.14, -180950.98, -181793.19, -181098.13, -181394.22, -181077.73, -171865.03, -181624.91, 0.00, 0.00, 0.00
218, -180948.77, -180918.44, -181755.53, -181070.53, -181376.52, -181098.20, -171840.83, -181712.70, 0.00, 0.00, 0.00
219, -180922.66, -180887.50, -181709.97, -181046.03, -181368.33, -181082.36, -171821.88, -181643.50, 0.00, 0.00, 0.00
220, -180931.59, -180898.63, -181719.92, -181055.11, -181373.38, -181069.17, -171841.70, -181584.25, 0.00, 0.00, 0.00
221, -180984.23, -180950.89, -181767.38, -181097.27, -181400.06, -181077.75, -171879.25, -181607.41, 0.00, 0.00, 0.00
222, -180963.16, -180931.36, -181744.47, -181081.91, -181384.05, -181099.89, -171865.23, -181701.27, 0.00, 0.00, 0.00
223, -180932.30, -180895.50, -181693.44, -181051.00, -181375.84, -181088.48, -171842.58, -181659.69, 0.00, 0.00, 0.00
224, -180923.44, -180888.44, -181690.42, -181056.66, -181360.73, -181064.92, -171856.70, -181575.86, 0.00, -0.26, 0.48
225, -180974.89, -180939.69, -181737.73, -181097.31, -181390.97, -181072.30, -171897.81, -181588.34, 0.00, 0.00, 0.00
226, -180971.81, -180936.38, -181730.58, -181094.03, -181384.20, -181097.38, -171894.09, -181701.89, 0.00, 0.00, 0.00
227, -180927.02, -180890.36, -181678.69, -181054.13, -181370.88, -181089.95, -171869.23, -181663.17, 0.00, 0.00, 0.00
228, -180930.70, -180891.70, -181668.25, -181048.92, -181363.70, -181071.86, -171877.89, -181600.23, 0.00, 0.00, 0.00
229, -180967.14, -180930.80, -181710.48, -181087.28, -181385.61, -181071.25, -171915.78, -181578.77, 0.00, 0.00, 0.00
230, -180983.09, -180945.88, -181719.44, -181098.16, -181389.55, -181091.69, -171921.63, -181683.75, 0.00, 0.00, 0.00
231, -180936.19, -180899.77, -181668.09, -181059.45, -181381.58, -181095.08, -171894.16, -181681.25, 0.00, 0.00, 0.00
232, -180929.55, -180889.17, -181645.17, -181043.84, -181367.66, -181075.30, -171892.48, -181609.77, 0.00, 0.00, 0.00
233, -180956.83, -180919.13, -181679.53, -181076.42, -181380.16, -181067.36, -171926.50, -181577.58, 0.00, 0.00, 0.00
234, -180987.98, -180949.17, -181702.73, -181098.92, -181393.36, -181089.52, -171945.13, -181659.50, 0.00, 0.00, 0.00
235, -180941.98, -180905.58, -181656.91, -181064.19, -181377.56, -181096.06, -171924.83, -181683.27, -0.00, -0.24, 0.48
236, -180931.98, -180891.86, -181629.98, -181045.70, -181373.14, -181078.72, -171923.31, -181631.03, 0.00, 0.00, 0.00
237, -180957.48, -180916.38, -181655.48, -181070.61, -181379.77, -181066.94, -171951.72, -181562.70, 0.00, 0.00, 0.00
238, -180996.23, -180956.56, -181690.00, -181102.80, -181399.42, -181086.83, -171978.47, -181652.27, 0.00, 0.00, 0.00
239, -180956.13, -180918.50, -181651.59, -181075.05, -181384.53, -181104.64, -171960.09, -181699.84, 0.00, 0.00, 0.00
240, -180942.30, -180910.63, -181614.00, -181057.78, -181382.25, -181090.88, -171951.11, -181653.78, 0.00, 0.00, 0.00
241, -180961.81, -180932.02, -181625.03, -181071.94, -181378.41, -181070.64, -171971.55, -181587.00, 0.00, 0.00, 0.00
242, -181000.64, -180965.59, -181664.41, -181105.19, -181399.39, -181079.48, -172002.72, -181620.53, 0.00, 0.00, 0.00
243, -180975.30, -180941.59, -181639.80, -181087.53, -181382.92, -181100.98, -171990.05, -181693.45, 0.00, 0.00, 0.00
244, -180930.19, -180900.84, -181603.63, -181061.42, -181373.69, -181085.92, -171981.67, -181637.83, 0.00, 0.00, 0.00
245, -180934.66, -180908.67, -181609.69, -181069.69, -181375.45, -181074.27, -172002.48, -181584.84, -0.00, -0.24, 0.48
246, -180981.94, -180956.56, -181648.84, -181105.05, -181397.41, -181078.45, -172036.97, -181621.66, 0.00, 0.00, 0.00
247, -180973.98, -180947.42, -181635.13, -181096.98, -181388.16, -181098.00, -172034.36, -181695.38, 0.00, 0.00, 0.00
248, -180933.03, -180901.30, -181592.31, -181065.39, -181374.16, -181087.80, -172020.72, -181652.00, 0.00, 0.00, 0.00
249, -180923.33, -180898.86, -181590.45, -181067.34, -181367.61, -181073.17, -172036.70, -181598.13, 0.00, 0.00, 0.00
250, -180970.63, -180947.47, -181631.81, -181104.59, -181391.34, -181077.73, -172074.73, -181599.80, 0.00, 0.00, 0.00
251, -180983.50, -180959.22, -181638.41, -181114.34, -181391.80, -181092.64, -172083.58, -181667.55, 0.00, 0.00, 0.00
252, -180945.23, -180924.80, -181606.00, -181093.31, -181366.52, -181089.36, -172080.53, -181632.19, 0.00, 0.00, 0.00
253, -180938.80, -180921.73, -181604.36, -181096.64, -181365.22, -181073.98, -172101.56, -181591.53, 0.00, 0.00, 0.00
254, -180981.52, -180965.78, -181642.20, -181131.80, -181392.63, -181077.84, -172142.13, -181587.98, 0.00, 0.00, 0.00
255, -181005.88, -180990.27, -181659.53, -181149.70, -181401.41, -181098.00, -172161.75, -181672.45, -0.00, -0.24, 0.48
0, -180964.34, -180952.36, -181622.20, -181124.72, -181378.91, -181099.23, -172153.22, -181675.11, 0.00, 0.00, 0.00
1, -180946.58, -180939.25, -181610.48, -181120.41, -181378.92, -181083.70, -172167.55, -181604.83, 0.00, 0.00, 0.00
2, -180982.72, -180976.95, -181643.28, -181152.56, -181398.84, -181088.27, -172206.14, -181578.44, 0.00, 0.00, 0.00
3, -181023.67, -181016.88, -181675.06, -181182.67, -181418.73, -181098.25, -172236.66, -181644.73, 0.00, 0.00, 0.00
4, -180994.23, -180989.33, -181648.63, -181165.22, -181395.28, -181104.72, -172235.23, -181679.63, 0.00, 0.00, 0.00
5, -180967.92, -180966.20, -181629.78, -181153.08, -181378.56, -181089.77, -172246.09, -181634.31, 0.00, 0.00, 0.00
6, -180983.88, -180985.64, -181645.56, -181168.73, -181387.89, -181084.31, -172273.05, -181605.25, 0.00, 0.00, 0.00
7, -181018.97, -181019.73, -181671.89, -181193.38, -181403.69, -181097.00, -172295.64, -181664.00, 0.00, 0.00, 0.00
8, -180986.58, -180989.53, -181641.09, -181171.03, -181394.09, -181109.73, -172283.64, -181696.56, 0.00, 0.00, 0.00
9, -180945.86, -180954.16, -181607.36, -181147.03, -181386.52, -181098.66, -172279.66, -181654.66, 0.00, 0.00, 0.00
10, -180947.58, -180960.48, -181610.64, -181151.77, -181375.73, -181081.73, -172296.34, -181622.31, 0.00, -0.23, 0.48
11, -180983.05, -180994.89, -181637.33, -181176.64, -181387.97, -181087.14, -172321.39, -181646.45, 0.00, 0.00, 0.00
12, -180973.78, -180984.14, -181626.41, -181171.00, -181390.59, -181100.67, -172325.55, -181670.09, 0.00, 0.00, 0.00
13, -180939.91, -180953.33, -181599.41, -181153.55, -181387.06, -181095.09, -172328.50, -181644.13, 0.00, 0.00, 0.00
14, -180937.28, -180955.11, -181600.11, -181157.17, -181376.08, -181085.77, -172348.42, -181622.88, 0.00, 0.00, 0.00
15, -180969.84, -180988.66, -181626.42, -181181.83, -181390.53, -181088.44, -172375.38, -181640.70, 0.00, 0.00, 0.00
16, -180974.52, -180992.97, -181625.86, -181186.63, -181391.42, -181105.09, -172386.81, -181669.52, 0.00, 0.00, 0.00
17, -180950.02, -180964.61, -181599.06, -181169.23, -181383.55, -181098.08, -172391.22, -181641.47, 0.00, 0.00, 0.00
18, -180953.33, -180960.70, -181594.81, -181169.80, -181380.80, -181087.02, -172408.45, -181622.95, 0.00, 0.00, 0.00
19, -180984.92, -180996.23, -181623.77, -181197.52, -181399.02, -181088.58, -172439.36, -181620.41, 0.00, 0.00, 0.00
20, -181003.14, -181015.64, -181638.97, -181214.45, -181404.41, -181099.39, -172459.64, -181654.52, 0.00, -0.25, 0.48
21, -180972.75, -180988.27, -181613.59, -181198.23, -181383.11, -181097.66, -172462.95, -181652.17, 0.00, 0.00, 0.00
22, -180960.59, -180980.55, -181606.58, -181196.28, -181377.22, -181087.81, -172480.42, -181616.30, 0.00, 0.00, 0.00
23, -180991.80, -181013.34, -181633.55, -181222.69, -181396.52, -181087.92, -172513.33, -181615.94, 0.00, 0.00, 0.00
24, -181016.72, -181036.92, -181650.66, -181241.19, -181407.69, -181107.48, -172531.70, -181685.39, 0.00, 0.00, 0.00
25, -180976.22, -180998.55, -181613.77, -181213.45, -181409.05, -181121.98, -172519.70, -181707.05, 0.00, 0.00, 0.00
26, -180950.27, -180970.92, -181587.28, -181194.55, -181393.83, -181099.33, -172521.58, -181649.84, 0.00, 0.00, 0.00
27, -180972.53, -180991.28, -181603.61, -181210.33, -181392.31, -181089.17, -172547.80, -181609.95, 0.00, 0.00, 0.00
28, -181006.34, -181025.88, -181632.38, -181238.64, -181410.73, -181103.53, -172576.09, -181663.50, 0.00, 0.00, 0.00
29, -180980.92, -180997.52, -181602.80, -181217.92, -181410.47, -181121.08, -172568.63, -181705.53, 0.00, 0.00, 0.00
30, -180959.97, -180967.92, -181575.23, -181198.52, -181389.67, -181098.45, -172570.69, -181644.16, 0.00, 0.00, 0.00
31, -180970.92, -180984.53, -181589.00, -181213.20, -181391.22, -181094.75, -172596.30, -181618.33, -0.02, -0.24, 0.48
32, -181012.42, -181027.98, -181624.88, -181247.88, -181415.58, -181103.13, -172629.13, -181639.36, 0.00, 0.00, 0.00
33, -180993.00, -181008.83, -181604.31, -181234.42, -181410.42, -181118.44, -172626.03, -181717.78, 0.00, 0.00, 0.00
34, -180953.19, -180969.08, -181567.06, -181206.33, -181399.08, -181107.38, -172619.36, -181661.70, 0.00, 0.00, 0.00
35, -180963.77, -180975.97, -181571.86, -181213.31, -181387.33, -181093.81, -172640.42, -181610.08, 0.00, 0.00, 0.00
36, -181008.64, -181025.03, -181614.16, -181253.59, -181416.92, -181102.19, -172680.05, -181620.86, 0.00, 0.00, 0.00
37, -181003.06, -181020.17, -181606.23, -181251.27, -181413.22, -181116.64, -172681.53, -181707.98, 0.00, 0.00, 0.00
38, -180962.67, -180974.31, -181563.30, -181218.03, -181404.42, -181114.88, -172665.92, -181692.39, 0.00, 0.00, 0.00
39, -180964.66, -180969.34, -181556.86, -181215.63, -181396.89, -181102.20, -172677.86, -181641.63, 0.00, 0.00, 0.00
40, -181003.34, -181015.00, -181594.59, -181251.45, -181418.67, -181105.06, -172714.61, -181609.73, 0.00, 0.00, 0.00
41, -181012.11, -181024.30, -181599.48, -181258.30, -181420.36, -181120.52, -172725.33, -181705.77, -0.01, -0.23, 0.48
42, -180965.13, -180976.53, -181555.45, -181224.08, -181406.33, -181120.22, -172709.27, -181701.06, 0.00, 0.00, 0.00
43, -180956.23, -180963.66, -181543.00, -181216.77, -181396.38, -181102.77, -172719.05, -181641.38, 0.00, 0.00, 0.00
44, -180995.95, -181008.64, -181582.17, -181254.42, -181420.00, -181107.84, -172761.56, -181590.30, 0.00, 0.00, 0.00
45, -181024.52, -181036.03, -181603.88, -181277.72, -181432.97, -181121.31, -172786.59, -181683.06, 0.00, 0.00, 0.00
46, -180984.50, -180992.38, -181562.13, -181246.52, -181408.52, -181123.59, -172771.89, -181718.94, 0.00, 0.00, 0.00
47, -180963.25, -180970.73, -181542.30, -181233.19, -181398.73, -181107.17, -172777.44, -181642.94, 0.00, 0.00, 0.00
48, -180989.13, -181003.73, -181569.97, -181261.08, -181418.64, -181109.41, -172809.89, -181603.92, 0.00, 0.00, 0.00
49, -181029.44, -181042.34, -181601.45, -181292.63, -181436.88, -181118.34, -172840.20, -181663.73, 0.00, 0.00, 0.00
50, -180989.69, -181004.63, -181564.13, -181264.64, -181413.09, -181130.50, -172824.73, -181729.53, 0.00, 0.00, 0.00
51, -180961.11, -180972.44, -181534.88, -181243.45, -181405.86, -181113.14, -172820.52, -181661.53, -0.01, -0.23, 0.48
52, -180986.58, -180996.86, -181555.41, -181264.95, -181421.59, -181107.58, -172851.48, -181593.88, 0.00, 0.00, 0.00
53, -181032.81, -181045.02, -181596.03, -181303.63, -181445.17, -181120.66, -172888.44, -181655.66, 0.00, 0.00, 0.00
54, -181003.48, -181016.47, -181567.11, -181282.56, -181422.53, -181130.97, -172877.08, -181730.69, 0.00, 0.00, 0.00
55, -180963.09, -180975.70, -181529.42, -181253.84, -181405.19, -181115.06, -172865.88, -181674.84, 0.00, 0.00, 0.00
56, -180974.84, -180986.00, -181537.53, -181264.69, -181409.80, -181113.75, -172885.17, -181625.39, 0.00, 0.00, 0.00
57, -181023.36, -181037.25, -181581.30, -181306.64, -181438.63, -181122.30, -172924.58, -181631.75, 0.00, 0.00, 0.00
58, -181009.36, -181022.88, -181564.20, -181295.58, -181424.77, -181134.19, -172917.73, -181733.11, 0.00, 0.00, 0.00
59, -180971.39, -180975.20, -181520.56, -181261.80, -181410.75, -181123.88, -172899.08, -181696.19, 0.00, 0.00, 0.00
60, -180975.75, -180976.86, -181521.33, -181266.47, -181409.48, -181109.31, -172914.91, -181623.25, 0.00, 0.00, 0.00
61, -181022.95, -181029.77, -181567.14, -181309.97, -181437.00, -181115.78, -172956.70, -181603.11, 0.00, 0.00, 0.00
62, -181023.80, -181030.33, -181563.81, -181311.44, -181433.13, -181134.42, -172958.38, -181735.34, -0.00, -0.23, 0.48
63, -180980.70, -180977.89, -181515.27, -181272.80, -181415.78, -181133.30, -172935.03, -181712.44, 0.00, 0.00, 0.00
64, -180973.11, -180966.47, -181503.25, -181265.75, -181404.34, -181113.77, -172939.38, -181647.08, 0.00, 0.00, 0.00
65, -181012.13, -181013.20, -181543.61, -181303.95, -181427.06, -181117.67, -172977.00, -181611.36, 0.00, 0.00, 0.00
66, -181029.75, -181029.39, -181555.23, -181317.84, -181435.34, -181133.08, -172990.34, -181716.39, 0.00, 0.00, 0.00
67, -180983.20, -180977.59, -181505.41, -181279.64, -181421.92, -181134.53, -172965.86, -181726.05, 0.00, 0.00, 0.00
68, -180961.48, -180957.84, -181487.83, -181267.14, -181407.28, -181117.19, -172968.03, -181652.95, 0.00, 0.00, 0.00
69, -180996.95, -180996.08, -181521.28, -181300.09, -181425.34, -181119.44, -173002.27, -181615.67, 0.00, 0.00, 0.00
70, -181029.00, -181027.06, -181546.20, -181324.78, -181440.92, -181134.75, -173023.59, -181701.61, 0.00, 0.00, 0.00
71, -180988.78, -180980.55, -181500.16, -181289.16, -181422.27, -181141.69, -172998.83, -181737.80, 0.00, 0.00, 0.00
72, -180978.81, -180948.98, -181469.00, -181265.84, -181417.64, -181123.52, -172989.28, -181687.02, -0.00, -0.23, 0.48
73, -181001.48, -180975.61, -181491.59, -181288.09, -181427.58, -181120.16, -173014.25, -181611.63, 0.00, 0.00, 0.00
74, -181039.22, -181018.33, -181527.36, -181322.83, -181447.28, -181130.08, -173043.00, -181681.50, 0.00, 0.00, 0.00
75, -181000.38, -180981.11, -181490.59, -181296.00, -181428.02, -181143.20, -173024.98, -181743.30, 0.00, 0.00, 0.00
76, -180967.34, -180943.59, -181455.97, -181269.98, -181415.45, -181128.55, -173015.03, -181689.69, 0.00, 0.00, 0.00
77, -180982.89, -180961.27, -181470.88, -181286.20, -181417.91, -181116.78, -173035.95, -181613.08, 0.00, 0.00, 0.00
78, -181032.50, -181012.16, -181514.36, -181328.23, -181447.00, -181126.44, -173072.25, -181640.31, 0.00, 0.00, 0.00
79, -181011.89, -180988.44, -181488.92, -181310.55, -181433.44, -181143.72, -173060.95, -181754.91, 0.00, 0.00, 0.00
80, -180978.11, -180940.86, -181443.78, -181276.08, -181424.97, -181134.47, -173039.69, -181715.34, 0.00, 0.00, 0.00
81, -180974.83, -180946.55, -181447.75, -181282.61, -181417.77, -181118.44, -173056.23, -181623.00, 0.00, 0.00, 0.00
82, -181026.59, -180998.52, -181494.03, -181324.44, -181446.61, -181125.91, -173096.33, -181642.14, 0.00, 0.00, 0.00
83, -181018.08, -180990.19, -181482.75, -181318.22, -181436.66, -181143.69, -173093.17, -181743.45, -0.01, -0.26, 0.47
84, -180969.69, -180941.52, -181437.17, -181283.19, -181419.42, -181135.83, -173073.19, -181706.36, 0.00, 0.00, 0.00
85, -180969.17, -180936.38, -181431.70, -181282.28, -181413.69, -181120.84, -173083.05, -181656.47, 0.00, 0.00, 0.00
86, -181012.84, -180984.92, -181473.42, -181321.70, -181442.89, -181125.14, -173120.27, -181621.17, 0.00, 0.00, 0.00
87, -181022.56, -180994.39, -181477.09, -181329.08, -181442.64, -181142.69, -173126.64, -181734.20, 0.00, 0.00, 0.00
88, -180987.64, -180953.19, -181427.34, -181291.17, -181427.22, -181143.81, -173099.19, -181728.97, 0.00, 0.00, 0.00
89, -180982.27, -180943.64, -181411.13, -181280.08, -181418.42, -181123.23, -173098.09, -181668.94, 0.00, 0.00, 0.00
90, -181015.28, -180979.88, -181446.36, -181314.69, -181435.23, -181119.06, -173130.73, -181620.13, 0.00, 0.00, 0.00
91, -181036.31, -181002.88, -181464.08, -181333.95, -181444.42, -181140.70, -173145.38, -181717.53, 0.00, 0.00, 0.00
92, -180988.70, -180957.61, -181421.59, -181300.30, -181427.41, -181145.30, -173123.52, -181731.44, 0.00, 0.00, 0.00
93, -180963.42, -180936.27, -181401.70, -181286.98, -181410.80, -181123.36, -173124.80, -181665.05, 0.00, -0.24, 0.48
94, -180995.02, -180969.33, -181430.72, -181314.97, -181426.38, -181123.67, -173153.73, -181626.63, 0.00, 0.00, 0.00
95, -181032.38, -181005.81, -181460.78, -181345.59, -181446.89, -181136.50, -173175.20, -181696.23, 0.00, 0.00, 0.00
96, -180998.03, -180973.11, -181422.05, -181317.33, -181435.08, -181151.06, -173151.17, -181744.80, 0.00, 0.00, 0.00
97, -180986.86, -180960.75, -181390.34, -181293.55, -181431.56, -181138.00, -173139.27, -181703.00, 0.00, 0.00, 0.00
98, -181007.91, -180976.41, -181406.08, -181310.30, -181431.41, -181127.38, -173158.17, -181638.34, 0.00, 0.00, 0.00
99, -181044.34, -181014.86, -181443.23, -181345.42, -181453.42, -181136.61, -173186.41, -181678.92, 0.00, 0.00, 0.00
100, -181018.39, -180989.58, -181418.11, -181327.38, -181433.22, -181149.23, -173173.05, -181730.09, 0.00, 0.00, 0.00
101, -180977.78, -180952.72, -181384.41, -181303.33, -181427.45, -181138.13, -173161.55, -181697.02, 0.00, 0.00, 0.00
102, -180984.08, -180963.03, -181391.53, -181312.58, -181425.14, -181124.81, -173176.27, -181654.16, 0.00, 0.00, 0.00
103, -181028.27, -181006.67, -181428.91, -181347.00, -181447.36, -181131.25, -173203.11, -181678.23, -0.01, -0.24, 0.48
104, -181012.98, -180990.36, -181411.25, -181335.72, -181436.23, -181152.48, -173191.14, -181743.91, 0.00, 0.00, 0.00
105, -180983.61, -180948.03, -181371.28, -181305.08, -181435.25, -181146.83, -173173.70, -181715.55, 0.00, 0.00, 0.00
106, -180977.47, -180946.84, -181368.67, -181306.13, -181421.75, -181134.42, -173179.66, -181669.23, 0.00, 0.00, 0.00
107, -181015.91, -180988.59, -181403.84, -181340.13, -181441.95, -181131.53, -173205.50, -181653.66, 0.00, 0.00, 0.00
108, -181019.38, -180990.77, -181403.89, -181344.03, -181441.38, -181151.55, -173206.98, -181734.08, 0.00, 0.00, 0.00
109, -180977.95, -180952.20, -181367.56, -181317.84, -181425.38, -181145.81, -173190.39, -181705.55, 0.00, 0.00, 0.00
110, -180979.08, -180951.58, -181359.80, -181314.81, -181422.64, -181136.83, -173193.33, -181675.02, 0.00, 0.00, 0.00
111, -181018.97, -180986.69, -181384.67, -181339.56, -181442.27, -181133.56, -173209.78, -181671.19, 0.00, 0.00, 0.00
112, -181023.78, -180994.11, -181391.48, -181348.80, -181437.02, -181145.92, -173210.45, -181715.41, 0.00, 0.00, 0.00
113, -180993.06, -180963.22, -181302.08, -181324.77, -181429.08, -181150.53, -173193.17, -181717.94, 0.00, 0.00, 0.00
114, -180988.33, -180957.06, -181072.23, -181303.23, -181438.98, -181148.19, -173174.45, -181739.34, -0.00, -0.24, 0.48
115, -180979.56, -180951.31, -181274.72, -181294.64, -181427.84, -181142.98, -173152.39, -181755.13, 0.00, 0.00, 0.00
116, -181006.64, -180974.67, -181654.98, -181283.30, -181451.25, -181162.67, -173124.56, -181785.72, 0.00, 0.00, 0.00
117, -181035.69, -181012.58, -182165.28, -181239.14, -181464.55, -181165.44, -173080.38, -181766.86, 0.00, 0.00, 0.00
118, -180985.27, -180958.36, -182320.41, -181219.41, -181421.81, -181135.22, -173067.34, -181692.52, 0.00, 0.00, 0.00
119, -180983.55, -180955.02, -182328.34, -181229.81, -181420.52, -181127.67, -173072.81, -181675.70, 0.00, 0.00, 0.00
120, -181005.41, -180974.83, -182342.53, -181246.53, -181423.42, -181135.36, -173077.13, -181706.41, 0.00, 0.00, 0.00
121, -180987.70, -180957.27, -182324.41, -181237.30, -181424.61, -181144.25, -173069.47, -181704.56, 0.00, 0.00, 0.00
122, -180968.30, -180937.67, -182306.09, -181226.17, -181424.41, -181138.33, -173067.47, -181683.06, 0.00, 0.00, 0.00
123, -180977.42, -180943.59, -182308.17, -181230.19, -181414.00, -181133.59, -173071.25, -181693.91, 0.00, 0.00, 0.00
124, -180994.86, -180963.36, -182321.19, -181245.23, -181417.50, -181137.64, -173073.84, -181697.17, -0.00, -0.23, 0.48
125, -180989.11, -180956.52, -182313.88, -181244.55, -181420.97, -181139.30, -173074.33, -181682.58, 0.00, 0.00, 0.00
126, -180978.98, -180945.88, -182298.27, -181236.75, -181423.30, -181139.67, -173076.80, -181684.63, 0.00, 0.00, 0.00
127, -180980.64, -180947.42, -182292.70, -181235.53, -181421.34, -181141.25, -173074.69, -181707.00, 0.00, 0.00, 0.00
128, -180982.88, -180951.61, -182295.77, -181240.61, -181417.75, -181140.44, -173064.61, -181726.19, 0.00, 0.00, 0.00
129, -180985.95, -180952.55, -182295.59, -181245.50, -181415.78, -181134.42, -173063.41, -181669.72, 0.00, 0.00, 0.00
130, -180977.80, -180946.28, -182288.17, -181244.50, -181418.73, -181135.42, -173071.39, -181659.13, 0.00, 0.00, 0.00
131, -180987.25, -180952.30, -182281.86, -181242.38, -181424.20, -181143.16, -173070.64, -181710.36, 0.00, 0.00, 0.00
132, -180979.19, -180946.81, -182275.83, -181238.44, -181432.61, -181154.25, -173052.20, -181769.50, 0.00, 0.00, 0.00
133, -180982.20, -180947.89, -182274.64, -181242.36, -181428.08, -181142.58, -173045.83, -181678.50, 0.00, 0.00, 0.00
134, -180979.45, -180947.83, -182275.42, -181249.70, -181424.56, -181134.16, -173061.33, -181639.98, 0.00, 0.00, 0.00
135, -180977.58, -180948.00, -182270.47, -181249.00, -181426.94, -181145.66, -173064.17, -181698.70, -0.00, -0.24, 0.48
136, -181003.55, -180967.97, -182248.00, -181230.44, -181450.20, -181166.47, -173031.38, -181796.39, 0.00, 0.00, 0.00
137, -181000.80, -180965.19, -182236.05, -181223.56, -181436.09, -181148.00, -173008.86, -181709.19, 0.00, 0.00, 0.00
138, -181000.55, -180962.64, -182249.45, -181242.88, -181436.91, -181134.78, -173034.03, -181612.09, 0.00, 0.00, 0.00
139, -180997.58, -180965.86, -182251.80, -181249.39, -181439.39, -181146.16, -173046.89, -181682.70, 0.00, 0.00, 0.00
140, -180993.78, -180965.91, -182228.14, -181228.25, -181446.78, -181167.00, -173016.31, -181775.88, 0.00, 0.00, 0.00
141, -180989.83, -180958.16, -182204.17, -181208.22, -181448.34, -181152.92, -172979.08, -181747.81, 0.00, 0.00, 0.00
142, -181001.89, -180967.97, -182227.17, -181236.39, -181450.22, -181131.58, -173009.78, -181592.55, 0.00, 0.00, 0.00
143, -181008.58, -180980.39, -182240.30, -181254.05, -181461.20, -181145.81, -173034.25, -181644.84, 0.00, 0.00, 0.00
144, -181013.66, -180987.91, -182210.41, -181228.09, -181457.13, -181158.41, -173000.47, -181759.00, 0.00, 0.00, 0.00
145, -181017.66, -180980.86, -182162.38, -181185.16, -181455.97, -181155.83, -172937.45, -181778.42, -0.01, -0.24, 0.48
146, -181018.41, -180977.64, -182188.14, -181216.89, -181452.38, -181141.09, -172965.59, -181630.97, 0.00, 0.00, 0.00
147, -181041.25, -181007.42, -182218.45, -181251.11, -181481.92, -181141.81, -173008.44, -181613.38, 0.00, 0.00, 0.00
148, -181033.36, -181004.59, -182197.16, -181231.94, -181476.67, -181150.31, -172984.55, -181729.00, 0.00, 0.00, 0.00
149, -181025.59, -180996.02, -182127.63, -181166.11, -181470.23, -181143.30, -172897.94, -181780.14, 0.00, 0.00, 0.00
150, -181027.64, -180990.77, -182147.94, -181192.16, -181461.31, -181158.22, -172911.53, -181697.25, 0.00, 0.00, 0.00
151, -181067.92, -181035.33, -182197.94, -181247.08, -181506.03, -181157.98, -172971.14, -181581.56, 0.00, 0.00, 0.00
152, -181055.30, -181028.38, -182184.09, -181237.02, -181498.64, -181145.08, -172959.63, -181685.08, 0.00, 0.00, 0.00
153, -181000.16, -180972.56, -182093.86, -181150.16, -181474.55, -181121.56, -172853.34, -181756.41, 0.00, 0.00, 0.00
154, -181002.59, -180969.59, -182099.66, -181161.80, -181464.91, -181143.53, -172850.59, -181702.67, 0.00, 0.00, 0.00
155, -181068.08, -181041.44, -182176.44, -181244.61, -181531.55, -181171.00, -172937.20, -181584.56, 0.00, -0.23, 0.48
156, -181074.16, -181054.00, -182183.14, -181253.02, -181539.03, -181157.17, -172947.58, -181637.69, 0.00, 0.00, 0.00
157, -181051.30, -181032.27, -182074.20, -181162.42, -181494.02, -181104.28, -172824.42, -181721.80, 0.00, 0.00, 0.00
158, -181038.53, -181007.69, -182043.78, -181143.89, -181480.53, -181111.08, -172781.27, -181714.00, 0.00, 0.00, 0.00
159, -181107.78, -181078.34, -182145.59, -181246.25, -181556.58, -181170.14, -172890.09, -181617.73, 0.00, 0.00, 0.00
160, -181128.77, -181107.91, -182172.28, -181276.95, -181582.13, -181163.28, -172924.53, -181607.53, 0.00, 0.00, 0.00
161, -181064.92, -181044.09, -182055.94, -181193.66, -181509.48, -181092.98, -172798.78, -181692.78, 0.00, 0.00, 0.00
162, -181038.78, -181014.19, -181978.94, -181155.08, -181480.89, -181066.53, -172705.38, -181682.39, 0.00, 0.00, 0.00
163, -181124.16, -181097.63, -182100.50, -181266.00, -181568.98, -181162.14, -172828.17, -181638.92, 0.00, 0.00, 0.00
164, -181176.27, -181158.72, -182162.11, -181331.50, -181629.42, -181179.38, -172897.48, -181588.05, 0.00, 0.00, 0.00
165, -181098.86, -181080.95, -182055.16, -181240.81, -181550.52, -181102.70, -172783.05, -181658.59, 0.00, 0.00, 0.00
166, -181042.89, -181011.66, -181920.38, -181147.77, -181481.09, -181028.47, -172631.95, -181644.19, -0.00, -0.24, 0.48
167, -181134.33, -181102.64, -182045.83, -181264.48, -181572.53, -181147.97, -172757.44, -181677.36, 0.00, 0.00, 0.00
168, -181221.28, -181200.05, -182146.08, -181368.98, -181670.48, -181197.03, -172867.14, -181598.59, 0.00, 0.00, 0.00
169, -181150.98, -181134.64, -182059.41, -181295.63, -181597.19, -181121.30, -172777.61, -181628.80, 0.00, 0.00, 0.00
170, -181034.86, -181013.83, -181870.33, -181162.47, -181484.02, -180997.33, -172572.81, -181605.84, 0.00, 0.00, 0.00
171, -181119.63, -181090.98, -181980.03, -181266.70, -181568.73, -181119.13, -172678.98, -181654.94, 0.00, 0.00, 0.00
172, -181253.52, -181231.83, -182129.63, -181414.89, -181708.64, -181215.95, -172834.05, -181604.67, 0.00, 0.00, 0.00
173, -181207.69, -181189.94, -182075.83, -181367.53, -181658.86, -181154.06, -172780.86, -181615.56, 0.00, 0.00, 0.00
174, -181073.52, -181047.56, -181843.02, -181180.86, -181501.80, -180988.55, -172537.33, -181578.88, 0.00, 0.00, 0.00
175, -181130.58, -181093.88, -181902.11, -181243.27, -181557.83, -181074.73, -172588.52, -181638.78, 0.00, 0.00, 0.00
176, -181289.42, -181260.92, -182088.72, -181428.81, -181726.41, -181210.81, -172778.67, -181616.66, -0.02, -0.23, 0.48
177, -181274.19, -181253.23, -182076.95, -181420.44, -181713.95, -181175.19, -172770.06, -181607.67, 0.00, 0.00, 0.00
178, -181086.97, -181064.77, -181832.64, -181213.47, -181525.89, -180993.38, -172520.48, -181577.08, 0.00, 0.00, 0.00
179, -181095.33, -181067.94, -181825.42, -181226.39, -181532.97, -181028.67, -172504.48, -181613.19, 0.00, 0.00, 0.00
180, -181292.31, -181266.58, -182045.45, -181439.59, -181730.50, -181205.94, -172722.73, -181643.70, 0.00, 0.00, 0.00
181, -181322.03, -181304.20, -182079.67, -181476.88, -181763.08, -181203.44, -172761.34, -181602.31, 0.00, 0.00, 0.00
182, -181129.95, -181108.11, -181843.30, -181255.23, -181564.31, -181021.39, -172524.06, -181577.91, 0.00, 0.00, 0.00
183, -181073.83, -181040.45, -181754.05, -181188.36, -181508.03, -180986.56, -172427.66, -181574.03, 0.00, 0.00, 0.00
184, -181286.92, -181257.75, -181992.64, -181423.61, -181718.92, -181189.84, -172662.03, -181649.80, 0.00, 0.00, 0.00
185, -181365.56, -181345.08, -182078.22, -181511.05, -181802.02, -181228.52, -172751.23, -181605.03, 0.00, 0.00, 0.00
186, -181185.64, -181165.73, -181865.31, -181320.72, -181618.16, -181057.27, -172541.84, -181580.22, 0.00, 0.00, 0.00
187, -181073.70, -181042.80, -181684.78, -181183.25, -181501.67, -180943.00, -172355.13, -181529.38, -0.00, -0.23, 0.48
188, -181283.39, -181251.30, -181928.86, -181414.34, -181708.81, -181165.67, -172587.63, -181651.91, 0.00, 0.00, 0.00
189, -181420.05, -181395.20, -182074.78, -181560.52, -181848.80, -181253.39, -172735.58, -181621.69, 0.00, 0.00, 0.00
190, -181264.77, -181244.98, -181903.39, -181403.08, -181693.39, -181101.42, -172571.22, -181602.47, 0.00, 0.00, 0.00
191, -181055.34, -181032.67, -181635.09, -181185.27, -181502.66, -180909.81, -172304.27, -181503.95, 0.00, 0.00, 0.00
192, -181247.25, -181217.67, -181848.88, -181391.34, -181687.31, -181120.14, -172506.42, -181650.36, 0.00, 0.00, 0.00
193, -181446.77, -181424.36, -182058.81, -181599.61, -181885.70, -181267.64, -172713.11, -181646.45, 0.00, 0.00, 0.00
194, -181337.66, -181321.97, -181942.09, -181491.22, -181776.42, -181156.03, -172602.78, -181613.70, 0.00, 0.00, 0.00
195, -181085.31, -181069.39, -181603.30, -181203.78, -181516.00, -180900.55, -172269.56, -181485.56, 0.00, 0.00, 0.00
196, -181229.81, -181200.47, -181757.81, -181359.33, -181655.48, -181065.50, -172407.47, -181612.95, 0.00, 0.00, 0.00
197, -181487.78, -181462.70, -182035.47, -181631.20, -181913.59, -181269.36, -172673.80, -181661.52, -0.00, -0.23, 0.48
198, -181435.66, -181417.39, -181983.47, -181583.16, -181862.66, -181203.08, -172629.69, -181630.47, 0.00, 0.00, 0.00
199, -181129.75, -181104.27, -181603.33, -181240.25, -181550.39, -180907.03, -172269.34, -181487.70, 0.00, 0.00, 0.00
200, -181197.81, -181158.64, -181660.11, -181312.27, -181610.88, -180994.61, -172314.47, -181567.33, 0.00, 0.00, 0.00
201, -181509.22, -181474.91, -181995.56, -181637.42, -181918.22, -181251.94, -172628.80, -181674.45, 0.00, 0.00, 0.00
202, -181522.44, -181497.25, -182013.31, -181658.25, -181933.47, -181239.89, -172649.97, -181641.53, 0.00, 0.00, 0.00
203, -181183.19, -181155.55, -181631.92, -181302.89, -181608.30, -180936.73, -172292.69, -181506.00, 0.00, 0.00, 0.00
204, -181153.39, -181113.72, -181571.44, -181260.03, -181577.52, -180926.88, -172228.86, -181521.06, 0.00, 0.00, 0.00
205, -181501.17, -181464.27, -181943.39, -181622.42, -181912.58, -181223.52, -172572.53, -181688.34, 0.00, 0.00, 0.00
206, -181588.72, -181561.00, -182037.25, -181716.69, -182001.31, -181266.42, -172662.45, -181658.75, 0.00, 0.00, 0.00
207, -181260.75, -181238.75, -181692.27, -181390.41, -181689.08, -180986.22, -172344.13, -181537.22, -0.00, -0.23, 0.48
208, -181100.78, -181072.50, -181498.42, -181225.39, -181542.67, -180867.16, -172161.05, -181479.17, 0.00, 0.00, 0.00
209, -181458.14, -181427.06, -181873.19, -181590.17, -181880.88, -181179.80, -172502.78, -181674.84, 0.00, 0.00, 0.00
210, -181623.58, -181601.09, -182045.08, -181760.89, -182044.80, -181278.25, -172666.48, -181669.27, 0.00, 0.00, 0.00
211, -181355.75, -181335.72, -181762.95, -181489.66, -181781.81, -181050.67, -172412.72, -181570.45, 0.00, 0.00, 0.00
212, -181100.17, -181066.56, -181447.75, -181197.03, -181528.88, -180827.81, -172123.64, -181451.23, 0.00, 0.00, 0.00
213, -181424.98, -181385.83, -181790.59, -181533.75, -181836.52, -181125.23, -172427.98, -181655.61, 0.00, 0.00, 0.00
214, -181671.31, -181640.97, -182045.52, -181785.92, -182076.97, -181286.41, -172659.78, -181680.47, 0.00, 0.00, 0.00
215, -181472.11, -181448.75, -181823.25, -181594.22, -181884.83, -181114.03, -172480.11, -181611.19, 0.00, 0.00, 0.00
216, -181108.22, -181084.91, -181192.00, -181226.48, -181531.41, -180796.13, -172099.73, -181440.75, 0.00, 0.00, 0.00
217, -181348.92, -181317.84, -181620.80, -181468.59, -181753.36, -181043.11, -172307.73, -181607.34, 0.00, 0.00, 0.00
218, -181663.11, -181637.13, -182445.64, -181784.25, -182057.14, -181285.19, -172591.48, -181653.56, -0.00, -0.24, 0.48
219, -181547.39, -181530.16, -182402.67, -181677.14, -181947.78, -181173.88, -172497.33, -181616.28, 0.00, 0.00, 0.00
220, -181146.88, -181130.89, -181964.16, -181315.42, -181595.09, -180872.70, -172141.19, -181507.80, 0.00, 0.00, 0.00
221, -181284.08, -181241.42, -182094.30, -181452.08, -181715.72, -181055.38, -172256.91, -181680.36, 0.00, 0.00, 0.00
222, -181586.59, -181508.94, -182279.72, -181497.64, -181743.97, -181118.91, -172257.05, -181710.41, 0.00, 0.00, 0.00
223, -181530.41, -181507.05, -182229.20, -181417.59, -181650.08, -181079.48, -172149.98, -181701.27, 0.00, 0.00, 0.00
224, -181168.70, -181198.14, -181936.69, -181281.50, -181532.38, -181028.06, -172036.92, -181720.23, 0.00, 0.00, 0.00
225, -181140.41, -181115.75, -181828.17, -181218.30, -181501.13, -181018.70, -171983.44, -181707.66, 0.00, 0.00, 0.00
226, -181399.52, -181340.84, -182048.17, -181316.27, -181576.42, -181085.80, -172069.44, -181599.78, 0.00, 0.00, 0.00
227, -181463.38, -181458.73, -182143.39, -181370.44, -181627.67, -181092.63, -172124.03, -181536.25, 0.00, 0.00, 0.00
228, -181305.77, -181309.77, -181991.00, -181280.28, -181529.47, -181041.50, -171993.52, -181636.42, -0.03, -0.42, 0.03
229, -181229.64, -181191.44, -181875.80, -181206.92, -181465.25, -181013.06, -171888.34, -181649.09, 0.00, 0.00, 0.00
230, -181320.11, -181298.19, -181987.52, -181272.39, -181532.06, -181092.58, -172005.56, -181620.84, 0.00, 0.00, 0.00
231, -181344.88, -181362.55, -182052.58, -181314.80, -181583.83, -181103.75, -172087.50, -181549.17, 0.00, 0.00, 0.00
232, -181262.77, -181290.66, -181967.77, -181261.08, -181518.84, -181073.75, -172000.48, -181630.69, 0.00, 0.00, 0.00
233, -181178.36, -181177.69, -181843.55, -181177.59, -181443.98, -181028.34, -171865.58, -181625.98, 0.00, 0.00, 0.00
234, -181248.28, -181244.56, -181911.31, -181211.63, -181470.95, -181083.75, -171927.47, -181660.02, 0.00, 0.00, 0.00
235, -181319.05, -181358.83, -182010.61, -181270.09, -181532.80, -181092.98, -172005.36, -181605.03, 0.00, 0.00, 0.00
236, -181253.34, -181317.05, -181964.19, -181243.72, -181507.58, -181083.05, -171962.73, -181672.72, 0.00, 0.00, 0.00
237, -181099.42, -181141.58, -181803.30, -181145.77, -181457.44, -181047.56, -171840.03, -181673.91, 0.00, 0.00, 0.00
238, -181175.09, -181192.73, -181846.33, -181160.55, -181446.94, -181081.84, -171847.48, -181702.53, 0.00, 0.00, 0.00
239, -181294.52, -181320.97, -181946.53, -181202.88, -181476.83, -181086.81, -171874.00, -181743.14, 0.02, -0.39, 0.11
240, -181248.30, -181307.53, -181910.61, -181165.11, -181448.69, -181086.77, -171818.08, -181715.42, 0.00, 0.00, 0.00
241, -181064.48, -181141.34, -181757.81, -181085.80, -181444.06, -181059.14, -171722.45, -181677.94, 0.00, 0.00, 0.00
242, -181104.80, -181148.97, -181767.75, -181093.97, -181421.70, -181082.86, -171723.13, -181721.83, 0.00, 0.00, 0.00
243, -181237.13, -181264.53, -181845.78, -181110.75, -181417.66, -181089.41, -171724.30, -181729.69, 0.00, 0.00, 0.00
244, -178454.84, -178574.31, -178844.38, -178366.33, -178593.22, -178257.19, -168812.48, -178883.22, 0.00, 0.00, 0.00
245, -162151.06, -162677.91, -162159.23, -162555.48, -162371.66, -162139.38, -152471.56, -162723.38, 0.00, 0.00, 0.00
246, -162522.50, -162988.16, -162601.05, -163014.31, -162723.27, -162384.34, -152906.78, -163093.23, 0.00, 0.00, 0.00
247, -179377.69, -179371.67, -179909.09, -179442.39, -179418.47, -178675.28, -169661.98, -179573.11, 0.00, 0.00, 0.00
248, -182818.42, -182731.25, -183582.78, -182780.47, -182815.56, -181875.31, -173012.13, -182834.48, 0.00, 0.00, 0.00
249, -167791.92, -168100.80, -168154.31, -168223.47, -167896.03, -167053.63, -157905.84, -168111.67, -0.03, -0.22, 0.00
250, -163942.75, -164315.38, -164302.81, -164582.55, -164072.50, -163199.80, -154107.36, -164348.19, 0.00, 0.00, 0.00
251, -180952.14, -180886.05, -181556.64, -181179.55, -180957.64, -179767.19, -171111.67, -181061.64, 0.00, 0.00, 0.00
252, -187499.88, -187414.77, -187500.02, -187500.02, -187500.02, -186631.84, -178121.61, -187500.02, 0.00, 0.00, 0.00
253, -176380.16, -176479.20, -176885.73, -176761.19, -176411.16, -175205.06, -166437.61, -176495.06, 0.00, 0.00, 0.00
254, -168294.73, -168505.55, -168861.36, -168957.88, -168326.22, -166862.52, -158066.14, -168493.23, 0.00, 0.00, 0.00
255, -182191.72, -182140.42, -182754.09, -182489.73, -182209.92, -181108.44, -173256.02, -182258.58, 0.00, 0.00, 0.00
0, -187500.02, -187500.02, -187500.02, -187500.02, -187500.02, -187500.02, -183083.41, -187500.02, 0.00, 0.00, 0.00
1, -184428.47, -184371.94, -184983.83, -184671.64, -184447.14, -183316.55, -176318.63, -184396.72, 0.00, 0.00, 0.00
2, -178165.84, -178102.94, -178911.00, -178656.23, -178108.84, -176067.36, -167292.28, -178100.34, 0.00, 0.00, 0.00
3, -186446.36, -186358.38, -186939.84, -186658.06, -186485.56, -185560.36, -180506.63, -186444.34, -0.06, -0.26, 0.39
4, -187500.02, -187500.02, -187500.02, -187500.02, -187500.02, -187500.02, -187500.02, -187500.02, 0.00, 0.00, 0.00
5, -187500.02, -187500.02, -187500.02, -187500.02, -187500.02, -187500.02, -187500.02, -187500.02, 0.00, 0.00, 0.00
6, -187500.02, -187500.02, -187500.02, -187500.02, -187500.02, -187500.02, -182355.88, -187500.02, 0.00, 0.00, 0.00
7, -187500.02, -187500.02, -187500.02, -187500.02, -187500.02, -187500.02, -187500.02, -187500.02, 0.00, 0.00, 0.00
8, -187500.02, -187500.02, -187500.02, -187500.02, -187500.02, -187500.02, -187500.02, -187500.02, 0.00, 0.00, 0.00
9, -187500.02, -187500.02, -187500.02, -187500.02, -187500.02, -187500.02, -187500.02, -187500.02, 0.00, 0.00, 0.00
10, -187500.02, -187500.02, -187500.02, -187500.02, -187500.02, -187500.02, -187500.02, -187500.02, 0.00, 0.00, 0.00
11, -187500.02, -187500.02, -187500.02, -187500.02, -187500.02, -187500.02, -187500.02, -187500.02, 0.00, 0.00, 0.00
12, -187500.02, -187500.02, -187500.02, -187500.02, -187500.02, -187500.02, -187500.02, -187500.02, 0.00, 0.00, 0.00
13, -187500.02, -187500.02, -187500.02, -187500.02, -187500.02, -187500.02, -187500.02, -187500.02, 0.00, 0.00, 0.00
14, -187500.02, -187500.02, -187500.02, -187500.02, -187500.02, -187500.02, -187500.02, -187500.02, -0.03, -0.23, 0.30
15, -187500.02, -187500.02, -187500.02, -187500.02, -187500.02, -187500.02, -187500.02, -187500.02, 0.00, 0.00, 0.00
16, -187500.02, -187500.02, -187500.02, -187500.02, -187500.02, -187500.02, -187500.02, -187500.02, 0.00, 0.00, 0.00
17, -187500.02, -187500.02, -187500.02, -187500.02, -187500.02, -187500.02, -187500.02, -187500.02, 0.00, 0.00, 0.00
18, -187500.02, -187500.02, -187500.02, -187500.02, -187500.02, -187500.02, -187500.02, -187500.02, 0.00, 0.00, 0.00
19, -187500.02, -187500.02, -187500.02, -187500.02, -187500.02, -187500.02, -187500.02, -187500.02, 0.00, 0.00, 0.00
20, -187500.02, -187500.02, -187500.02, -187500.02, -187500.02, -187500.02, -187500.02, -187500.02, 0.00, 0.00, 0.00
21, -187500.02, -187500.02, -187500.02, -187500.02, -187500.02, -187500.02, -187500.02, -187500.02, 0.00, 0.00, 0.00
22, -187500.02, -187500.02, -187500.02, -187500.02, -187500.02, -187500.02, -187500.02, -187500.02, 0.00, 0.00, 0.00
23, -187500.02, -187500.02, -187500.02, -187500.02, -187500.02, -187500.02, -187500.02, -187500.02, 0.00, 0.00, 0.00
24, -187500.02, -187500.02, -187500.02, -187500.02, -187500.02, -187500.02, -187500.02, -187500.02, 0.02, -0.24, 0.48
25, -187500.02, -187500.02, -187500.02, -187500.02, -187500.02, -187500.02, -187500.02, -187500.02, 0.00, 0.00, 0.00
26, -187500.02, -187500.02, -187500.02, -187500.02, -187500.02, -187500.02, -187500.02, -187500.02, 0.00, 0.00, 0.00
27, -187500.02, -187500.02, -187500.02, -187500.02, -187500.02, -187500.02, -187500.02, -187500.02, 0.00, 0.00, 0.00
28, -187500.02, -187500.02, -187500.02, -187500.02, -187500.02, -187500.02, -187500.02, -187500.02, 0.00, 0.00, 0.00
29, -187500.02, -187500.02, -187500.02, -187500.02, -187500.02, -187500.02, -187500.02, -187500.02, 0.00, 0.00, 0.00
30, -187500.02, -187500.02, -187500.02, -187500.02, -187500.02, -187500.02, -187500.02, -187500.02, 0.00, 0.00, 0.00
31, -187500.02, -187500.02, -187500.02, -187500.02, -187500.02, -187500.02, -187500.02, -187500.02, 0.00, 0.00, 0.00
32, -187500.02, -187500.02, -187500.02, -187500.02, -187500.02, -187500.02, -187500.02, -187500.02, 0.00, 0.00, 0.00
33, -187500.02, -187500.02, -187500.02, -187500.02, -187500.02, -187500.02, -187500.02, -187500.02, 0.00, 0.00, 0.00
34, -187500.02, -187500.02, -187500.02, -187500.02, -187500.02, -187500.02, -187500.02, -187500.02, 0.00, 0.00, 0.00
35, -187500.02, -187500.02, -187500.02, -187500.02, -187500.02, -187500.02, -187500.02, -187500.02, -0.03, -0.24, 0.40
36, -187500.02, -187500.02, -187500.02, -187500.02, -187500.02, -187500.02, -187500.02, -187500.02, 0.00, 0.00, 0.00
37, -187500.02, -187500.02, -187500.02, -187500.02, -187500.02, -187500.02, -187500.02, -187500.02, 0.00, 0.00, 0.00
38, -187500.02, -187500.02, -187500.02, -187500.02, -187500.02, -187500.02, -187500.02, -187500.02, 0.00, 0.00, 0.00
39, -187500.02, -187500.02, -187500.02, -187500.02, -187500.02, -187500.02, -187500.02, -187500.02, 0.00, 0.00, 0.00
40, -187500.02, -187500.02, -187500.02, -187500.02, -187500.02, -187500.02, -187500.02, -187500.02, 0.00, 0.00, 0.00
41, -187500.02, -187500.02, -187500.02, -187500.02, -187500.02, -187500.02, -187500.02, -187500.02, 0.00, 0.00, 0.00
42, -187500.02, -187500.02, -187500.02, -187500.02, -187500.02, -187500.02, -187500.02, -187500.02, 0.00, 0.00, 0.00
43, -187500.02, -187500.02, -187500.02, -187500.02, -187500.02, -187500.02, -187500.02, -187500.02, 0.00, 0.00, 0.00
44, -187500.02, -187500.02, -187500.02, -187500.02, -187500.02, -187500.02, -187500.02, -187500.02, 0.00, 0.00, 0.00
45, -187500.02, -187500.02, -187500.02, -187500.02, -187500.02, -187500.02, -187500.02, -187500.02, -0.01, -0.42, 0.00
46, -187500.02, -187500.02, -187500.02, -187500.02, -187500.02, -187500.02, -187500.02, -187500.02, 0.00, 0.00, 0.00
47, -187500.02, -187500.02, -187500.02, -187500.02, -187500.02, -187500.02, -187500.02, -187500.02, 0.00, 0.00, 0.00
48, -187500.02, -187500.02, -187500.02, -187500.02, -187500.02, -187500.02, -187500.02, -187500.02, 0.00, 0.00, 0.00
49, -187500.02, -187500.02, -187500.02, -187500.02, -187500.02, -187500.02, -187500.02, -187500.02, 0.00, 0.00, 0.00
50, -187500.02, -187500.02, -187500.02, -187500.02, -187500.02, -187500.02, -187500.02, -187500.02, 0.00, 0.00, 0.00
51, -187500.02, -187500.02, -187500.02, -187500.02, -187500.02, -187500.02, -187500.02, -187500.02, 0.00, 0.00, 0.00
52, -187500.02, -187500.02, -187500.02, -187500.02, -187500.02, -187500.02, -187500.02, -187500.02, 0.00, 0.00, 0.00
53, -187500.02, -187500.02, -187500.02, -187500.02, -187500.02, -187500.02, -187500.02, -187500.02, 0.00, 0.00, 0.00
54, -187500.02, -187500.02, -187500.02, -187500.02, -187500.02, -187500.02, -187500.02, -187500.02, 0.00, 0.00, 0.00
55, -187500.02, -187500.02, -187500.02, -187500.02, -187500.02, -187500.02, -187500.02, -187500.02, 0.00, -0.26, 0.16
56, -187500.02, -187500.02, -187500.02, -187500.02, -187500.02, -187500.02, -187500.02, -187500.02, 0.00, 0.00, 0.00
57, -187500.02, -187500.02, -187500.02, -187500.02, -187500.02, -187500.02, -187500.02, -187500.02, 0.00, 0.00, 0.00
58, -187500.02, -187500.02, -187500.02, -187500.02, -187500.02, -187500.02, -187500.02, -187500.02, 0.00, 0.00, 0.00
59, -187500.02, -187500.02, -187500.02, -187500.02, -187500.02, -187500.02, -187500.02, -187500.02, 0.00, 0.00, 0.00
60, -187500.02, -187500.02, -187500.02, -187500.02, -187500.02, -187500.02, -187500.02, -187500.02, 0.00, 0.00, 0.00
61, -187500.02, -187500.02, -187500.02, -187500.02, -187500.02, -187500.02, -187500.02, -187500.02, 0.00, 0.00, 0.00
62, -187500.02, -187500.02, -187500.02, -187500.02, -187500.02, -187500.02, -187500.02, -187500.02, 0.00, 0.00, 0.00
63, -187500.02, -187500.02, -187500.02, -187500.02, -187500.02, -187500.02, -187500.02, -187500.02, 0.00, 0.00, 0.00
64, -187500.02, -187500.02, -187500.02, -187500.02, -187500.02, -187500.02, -187500.02, -187500.02, 0.00, 0.00, 0.00
65, -187500.02, -187500.02, -187500.02, -187500.02, -187500.02, -187500.02, -187500.02, -187500.02, 0.00, 0.00, 0.00
66, -187500.02, -187500.02, -187500.02, -187500.02, -187500.02, -187500.02, -187500.02, -187500.02, -0.03, -0.39, 0.31
67, -187500.02, -187500.02, -187500.02, -187500.02, -187500.02, -187500.02, -187500.02, -187500.02, 0.00, 0.00, 0.00
68, -187500.02, -187500.02, -187500.02, -187500.02, -187500.02, -187500.02, -187500.02, -187500.02, 0.00, 0.00, 0.00
69, -187500.02, -187500.02, -187500.02, -187500.02, -187500.02, -187500.02, -187500.02, -187500.02, 0.00, 0.00, 0.00
70, -187500.02, -187500.02, -187500.02, -187500.02, -187500.02, -187500.02, -187500.02, -187500.02, 0.00, 0.00, 0.00
71, -187500.02, -187500.02, -187500.02, -187500.02, -187500.02, -187500.02, -187500.02, -187500.02, 0.00, 0.00, 0.00
72, -187500.02, -187500.02, -187500.02, -187500.02, -187500.02, -187500.02, -187500.02, -187500.02, 0.00, 0.00, 0.00
73, -187500.02, -187500.02, -187500.02, -187500.02, -187500.02, -187500.02, -187500.02, -187500.02, 0.00, 0.00, 0.00
74, -187500.02, -187500.02, -187500.02, -187500.02, -187500.02, -187500.02, -187500.02, -187500.02, 0.00, 0.00, 0.00
75, -187500.02, -187500.02, -187500.02, -187500.02, -187500.02, -187500.02, -187500.02, -187500.02, 0.00, 0.00, 0.00
76, -187500.02, -187500.02, -187500.02, -187500.02, -187500.02, -187500.02, -187500.02, -187500.02, -0.04, -0.42, 0.00
77, -187500.02, -187500.02, -187500.02, -187500.02, -187500.02, -187500.02, -187500.02, -187500.02, 0.00, 0.00, 0.00
78, -187500.02, -187500.02, -187500.02, -187500.02, -187500.02, -187500.02, -187500.02, -187500.02, 0.00, 0.00, 0.00
79, -187500.02, -187500.02, -187500.02, -187500.02, -187500.02, -187500.02, -187500.02, -187500.02, 0.00, 0.00, 0.00
80, -187500.02, -187500.02, -187500.02, -187500.02, -187500.02, -187500.02, -187500.02, -187500.02, 0.00, 0.00, 0.00
81, -187500.02, -187500.02, -187500.02, -187500.02, -187500.02, -187500.02, -187500.02, -187500.02, 0.00, 0.00, 0.00
82, -187500.02, -187500.02, -187500.02, -187500.02, -187500.02, -187500.02, -187500.02, -187500.02, 0.00, 0.00, 0.00
83, -187500.02, -187500.02, -187500.02, -187500.02, -187500.02, -187500.02, -187500.02, -187500.02, 0.00, 0.00, 0.00
84, -187500.02, -187500.02, -187500.02, -187500.02, -187500.02, -187500.02, -187500.02, -187500.02, 0.00, 0.00, 0.00
85, -187500.02, -187500.02, -187500.02, -187500.02, -187500.02, -187500.02, -187500.02, -187500.02, 0.00, 0.00, 0.00
86, -187500.02, -187500.02, -187500.02, -187500.02, -187500.02, -187500.02, -187500.02, -187500.02, 0.00, 0.00, 0.00
87, -187500.02, -187500.02, -187500.02, -187500.02, -187500.02, -187500.02, -187500.02, -187500.02, -0.03, -0.42, 0.48
88, -187500.02, -187500.02, -187500.02, -187500.02, -187500.02, -187500.02, -187500.02, -187500.02, 0.00, 0.00, 0.00
89, -187500.02, -187500.02, -187500.02, -187500.02, -187500.02, -187500.02, -187500.02, -187500.02, 0.00, 0.00, 0.00
90, -187500.02, -187500.02, -187500.02, -187500.02, -187500.02, -187500.02, -187500.02, -187500.02, 0.00, 0.00, 0.00
91, -187500.02, -187500.02, -187500.02, -187500.02, -187500.02, -187500.02, -187500.02, -187500.02, 0.00, 0.00, 0.00
92, -187500.02, -187500.02, -187500.02, -187500.02, -187500.02, -187500.02, -187500.02, -187500.02, 0.00, 0.00, 0.00
93, -187500.02, -187500.02, -187500.02, -187500.02, -187500.02, -187500.02, -187500.02, -187500.02, 0.00, 0.00, 0.00
94, -187500.02, -187500.02, -187500.02, -187500.02, -187500.02, -187500.02, -187500.02, -187500.02, 0.00, 0.00, 0.00
95, -187500.02, -187500.02, -187500.02, -187500.02, -187500.02, -187500.02, -187500.02, -187500.02, 0.00, 0.00, 0.00
96, -187500.02, -187500.02, -187500.02, -187500.02, -187500.02, -187500.02, -187500.02, -187500.02, 0.00, 0.00, 0.00
97, -187500.02, -187500.02, -187500.02, -187500.02, -187500.02, -187500.02, -187500.02, -187500.02, -0.03, -0.42, 0.47
98, -187500.02, -187500.02, -187500.02, -187500.02, -187500.02, -187500.02, -187500.02, -187500.02, 0.00, 0.00, 0.00
99, -187500.02, -187500.02, -187500.02, -187500.02, -187500.02, -187500.02, -187500.02, -187500.02, 0.00, 0.00, 0.00
100, -187500.02, -187500.02, -187500.02, -187500.02, -187500.02, -187500.02, -187500.02, -187500.02, 0.00, 0.00, 0.00
101, -187500.02, -187500.02, -187500.02, -187500.02, -187500.02, -187500.02, -187500.02, -187500.02, 0.00, 0.00, 0.00
102, -187500.02, -187500.02, -187500.02, -187500.02, -187500.02, -187500.02, -187500.02, -187500.02, 0.00, 0.00, 0.00
103, -187500.02, -187500.02, -187500.02, -187500.02, -187500.02, -187500.02, -187500.02, -187500.02, 0.00, 0.00, 0.00
104, -187500.02, -187500.02, -187500.02, -187500.02, -187500.02, -187500.02, -187500.02, -187500.02, 0.00, 0.00, 0.00
105, -187500.02, -187500.02, -187500.02, -187500.02, -187500.02, -187500.02, -187500.02, -187500.02, 0.00, 0.00, 0.00
106, -187500.02, -187500.02, -187500.02, -187500.02, -187500.02, -187500.02, -187500.02, -187500.02, 0.00, 0.00, 0.00
107, -187500.02, -187500.02, -187500.02, -187500.02, -187500.02, -187500.02, -187500.02, -187500.02, -0.06, -0.41, 0.28
108, -187500.02, -187500.02, -187500.02, -187500.02, -187500.02, -187500.02, -187500.02, -187500.02, 0.00, 0.00, 0.00
109, -187500.02, -187500.02, -187500.02, -187500.02, -187500.02, -187500.02, -187500.02, -187500.02, 0.00, 0.00, 0.00
110, -187500.02, -187500.02, -187500.02, -187500.02, -187500.02, -187500.02, -187500.02, -187500.02, 0.00, 0.00, 0.00
111, -187500.02, -187500.02, -187500.02, -187500.02, -187500.02, -187500.02, -187500.02, -187500.02, 0.00, 0.00, 0.00
112, -187500.02, -187500.02, -187500.02, -187500.02, -187500.02, -187500.02, -187500.02, -187500.02, 0.00, 0.00, 0.00
113, -187500.02, -187500.02, -187500.02, -187500.02, -187500.02, -187500.02, -187500.02, -187500.02, 0.00, 0.00, 0.00
114, -187500.02, -187500.02, -187500.02, -187500.02, -187500.02, -187500.02, -187500.02, -187500.02, 0.00, 0.00, 0.00
115, -187500.02, -187500.02, -187500.02, -187500.02, -187500.02, -187500.02, -187500.02, -187500.02, 0.00, 0.00, 0.00
116, -187500.02, -187500.02, -187500.02, -187500.02, -187500.02, -187500.02, -187500.02, -187500.02, 0.00, 0.00, 0.00
117, -187500.02, -187500.02, -187500.02, -187500.02, -187500.02, -187500.02, -187500.02, -187500.02, 0.00, 0.00, 0.00
118, -187500.02, -187500.02, -187500.02, -187500.02, -187500.02, -187500.02, -187500.02, -187500.02, 0.00, -0.24, 0.02
119, -187500.02, -187500.02, -187500.02, -187500.02, -187500.02, -187500.02, -187500.02, -187500.02, 0.00, 0.00, 0.00
120, -187500.02, -187500.02, -187500.02, -187500.02, -187500.02, -187500.02, -187500.02, -187500.02, 0.00, 0.00, 0.00
121, -187500.02, -187500.02, -187500.02, -187500.02, -187500.02, -187500.02, -187500.02, -187500.02, 0.00, 0.00, 0.00
122, -187500.02, -187500.02, -187500.02, -187500.02, -187500.02, -187500.02, -187500.02, -187500.02, 0.00, 0.00, 0.00
123, -187500.02, -187500.02, -187500.02, -187500.02, -187500.02, -187500.02, -187500.02, -187500.02, 0.00, 0.00, 0.00
124, -187500.02, -187500.02, -187500.02, -187500.02, -187500.02, -187500.02, -187500.02, -187500.02, 0.00, 0.00, 0.00
125, -187500.02, -187500.02, -187500.02, -187500.02, -187500.02, -187500.02, -187500.02, -187500.02, 0.00, 0.00, 0.00
126, -187500.02, -187500.02, -187500.02, -187500.02, -187500.02, -187500.02, -187500.02, -187500.02, 0.00, 0.00, 0.00
127, -187500.02, -187500.02, -187500.02, -187500.02, -187500.02, -187500.02, -187500.02, -187500.02, 0.00, 0.00, 0.00
128, -187500.02, -187500.02, -187500.02, -187500.02, -187500.02, -187500.02, -187500.02, -187500.02, 0.02, -0.25, 0.01
129, -187500.02, -187500.02, -187500.02, -187500.02, -187500.02, -187500.02, -187500.02, -187500.02, 0.00, 0.00, 0.00
130, -187500.02, -187500.02, -187500.02, -187500.02, -187500.02, -187500.02, -187500.02, -187500.02, 0.00, 0.00, 0.00
131, -187500.02, -187500.02, -187500.02, -187500.02, -187500.02, -187500.02, -187500.02, -187500.02, 0.00, 0.00, 0.00
132, -187500.02, -187500.02, -187500.02, -187500.02, -187500.02, -187500.02, -187500.02, -187500.02, 0.00, 0.00, 0.00
133, -187500.02, -187500.02, -187500.02, -187500.02, -187500.02, -187500.02, -187500.02, -187500.02, 0.00, 0.00, 0.00
134, -187500.02, -187500.02, -187500.02, -187500.02, -187500.02, -187500.02, -187500.02, -187500.02, 0.00, 0.00, 0.00
135, -187500.02, -187500.02, -187500.02, -187500.02, -187500.02, -187500.02, -187500.02, -187500.02, 0.00, 0.00, 0.00
136, -187500.02, -187500.02, -187500.02, -187500.02, -187500.02, -187500.02, -187500.02, -187500.02, 0.00, 0.00, 0.00
137, -187500.02, -187500.02, -187500.02, -187500.02, -187500.02, -187500.02, -187500.02, -187500.02, 0.00, 0.00, 0.00
138, -187500.02, -187500.02, -187500.02, -187500.02, -187500.02, -187500.02, -187500.02, -187500.02, 0.00, 0.00, 0.00
139, -187500.02, -187500.02, -187500.02, -187500.02, -187500.02, -187500.02, -187500.02, -187500.02, -0.03, -0.39, 0.02
140, -187500.02, -187500.02, -187500.02, -187500.02, -187500.02, -187500.02, -187500.02, -187500.02, 0.00, 0.00, 0.00
141, -187500.02, -187500.02, -187500.02, -187500.02, -187500.02, -187500.02, -187500.02, -187500.02, 0.00, 0.00, 0.00
142, -187500.02, -187500.02, -187500.02, -187500.02, -187500.02, -187500.02, -187500.02, -187500.02, 0.00, 0.00, 0.00
143, -187500.02, -187500.02, -187500.02, -187500.02, -187500.02, -187500.02, -187500.02, -187500.02, 0.00, 0.00, 0.00
144, -187500.02, -187500.02, -187500.02, -187500.02, -187500.02, -187500.02, -187500.02, -187500.02, 0.00, 0.00, 0.00
145, -187500.02, -187500.02, -187500.02, -187500.02, -187500.02, -187500.02, -187500.02, -187500.02, 0.00, 0.00, 0.00
146, -187500.02, -187500.02, -187500.02, -187500.02, -187500.02, -187500.02, -187500.02, -187500.02, 0.00, 0.00, 0.00
147, -187500.02, -187500.02, -187500.02, -187500.02, -187500.02, -187500.02, -187500.02, -187500.02, 0.00, 0.00, 0.00
148, -187500.02, -187500.02, -187500.02, -187500.02, -187500.02, -187500.02, -187500.02, -187500.02, 0.00, 0.00, 0.00
149, -187500.02, -187500.02, -187500.02, -187500.02, -187500.02, -187500.02, -187500.02, -187500.02, 0.02, -0.39, 0.06
150, -187500.02, -187500.02, -187500.02, -187500.02, -187500.02, -187500.02, -187500.02, -187500.02, 0.00, 0.00, 0.00
151, -187500.02, -187500.02, -187500.02, -187500.02, -187500.02, -187500.02, -187500.02, -187500.02, 0.00, 0.00, 0.00
152, -187500.02, -187500.02, -187500.02, -187500.02, -187500.02, -187500.02, -187500.02, -187500.02, 0.00, 0.00, 0.00
153, -187500.02, -187500.02, -187500.02, -187500.02, -187500.02, -187500.02, -187500.02, -187500.02, 0.00, 0.00, 0.00
154, -187500.02, -187500.02, -187500.02, -187500.02, -187500.02, -187500.02, -187500.02, -187500.02, 0.00, 0.00, 0.00
155, -187500.02, -187500.02, -187500.02, -187500.02, -187500.02, -187500.02, -187500.02, -187500.02, 0.00, 0.00, 0.00
156, -187500.02, -187500.02, -187500.02, -187500.02, -187500.02, -187500.02, -187500.02, -187500.02, 0.00, 0.00, 0.00
157, -187500.02, -187500.02, -187500.02, -187500.02, -187500.02, -187500.02, -187500.02, -187500.02, 0.00, 0.00, 0.00
158, -187500.02, -187500.02, -187500.02, -187500.02, -187500.02, -187500.02, -187500.02, -187500.02, 0.00, 0.00, 0.00
159, -187500.02, -187500.02, -187500.02, -187500.02, -187500.02, -187500.02, -187500.02, -187500.02, -0.03, -0.40, 0.40
160, -187500.02, -187500.02, -187500.02, -187500.02, -187500.02, -187500.02, -187500.02, -187500.02, 0.00, 0.00, 0.00
161, -187500.02, -187500.02, -187500.02, -187500.02, -187500.02, -187500.02, -187500.02, -187500.02, 0.00, 0.00, 0.00
162, -187500.02, -187500.02, -187500.02, -187500.02, -187500.02, -187500.02, -187500.02, -187500.02, 0.00, 0.00, 0.00
163, -187500.02, -187500.02, -187500.02, -187500.02, -187500.02, -187500.02, -187500.02, -187500.02, 0.00, 0.00, 0.00
164, -187500.02, -187500.02, -187500.02, -187500.02, -187500.02, -187500.02, -187500.02, -187500.02, 0.00, 0.00, 0.00
165, -187500.02, -187500.02, -187500.02, -187500.02, -187500.02, -187500.02, -187500.02, -187500.02, 0.00, 0.00, 0.00
166, -187500.02, -187500.02, -187500.02, -187500.02, -187500.02, -187500.02, -187500.02, -187500.02, 0.00, 0.00, 0.00
167, -187500.02, -187500.02, -187500.02, -187500.02, -187500.02, -187500.02, -187500.02, -187500.02, 0.00, 0.00, 0.00
168, -187500.02, -187500.02, -187500.02, -187500.02, -187500.02, -187500.02, -187500.02, -187500.02, 0.00, 0.00, 0.00
169, -187500.02, -187500.02, -187500.02, -187500.02, -187500.02, -187500.02, -187500.02, -187500.02, 0.00, 0.00, 0.00
170, -187500.02, -187500.02, -187500.02, -187500.02, -187500.02, -187500.02, -187500.02, -187500.02, -0.01, -0.26, 0.46
171, -187500.02, -187500.02, -187500.02, -187500.02, -187500.02, -187500.02, -187500.02, -187500.02, 0.00, 0.00, 0.00
172, -187500.02, -187500.02, -187500.02, -187500.02, -187500.02, -187500.02, -187500.02, -187500.02, 0.00, 0.00, 0.00
173, -187500.02, -187500.02, -187500.02, -187500.02, -187500.02, -187500.02, -187500.02, -187500.02, 0.00, 0.00, 0.00
174, -187500.02, -187500.02, -187500.02, -187500.02, -187500.02, -187500.02, -187500.02, -187500.02, 0.00, 0.00, 0.00
175, -187500.02, -187500.02, -187500.02, -187500.02, -187500.02, -187500.02, -187500.02, -187500.02, 0.00, 0.00, 0.00
176, -187500.02, -187500.02, -187500.02, -187500.02, -187500.02, -187500.02, -187500.02, -187500.02, 0.00, 0.00, 0.00
177, -187500.02, -187500.02, -187500.02, -187500.02, -187500.02, -187500.02, -187500.02, -187500.02, 0.00, 0.00, 0.00
178, -187500.02, -187500.02, -187500.02, -187500.02, -187500.02, -187500.02, -187500.02, -187500.02, 0.00, 0.00, 0.00
179, -187500.02, -187500.02, -187500.02, -187500.02, -187500.02, -187500.02, -187500.02, -187500.02, 0.00, 0.00, 0.00
180, -187500.02, -187500.02, -187500.02, -187500.02, -187500.02, -187500.02, -187500.02, -187500.02, -0.02, -0.26, 0.46
181, -187500.02, -187500.02, -187500.02, -187500.02, -187500.02, -187500.02, -187500.02, -187500.02, 0.00, 0.00, 0.00
182, -187500.02, -187500.02, -187500.02, -187500.02, -187500.02, -187500.02, -187500.02, -187500.02, 0.00, 0.00, 0.00
183, -187500.02, -187500.02, -187500.02, -187500.02, -187500.02, -187500.02, -187500.02, -187500.02, 0.00, 0.00, 0.00
184, -187500.02, -187500.02, -187500.02, -187500.02, -187500.02, -187500.02, -187500.02, -187500.02, 0.00, 0.00, 0.00
185, -187500.02, -187500.02, -187500.02, -187500.02, -187500.02, -187500.02, -187500.02, -187500.02, 0.00, 0.00, 0.00
186, -187500.02, -187500.02, -187500.02, -187500.02, -187500.02, -187500.02, -187500.02, -187500.02, 0.00, 0.00, 0.00
187, -187500.02, -187500.02, -187500.02, -187500.02, -187500.02, -187500.02, -187500.02, -187500.02, 0.00, 0.00, 0.00
188, -187500.02, -187500.02, -187500.02, -187500.02, -187500.02, -187500.02, -187500.02, -187500.02, 0.00, 0.00, 0.00
189, -187500.02, -187500.02, -187500.02, -187500.02, -187500.02, -187500.02, -187500.02, -187500.02, 0.00, 0.00, 0.00
190, -187500.02, -187500.02, -187500.02, -187500.02, -187500.02, -187500.02, -187500.02, -187500.02, 0.00, 0.00, 0.00
191, -187500.02, -187500.02, -187500.02, -187500.02, -187500.02, -187500.02, -187500.02, -187500.02, -0.21, -0.41, 0.06
192, -187500.02, -187500.02, -187500.02, -187500.02, -187500.02, -187500.02, -187500.02, -187500.02, 0.00, 0.00, 0.00
193, -187500.02, -187500.02, -187500.02, -187500.02, -187500.02, -187500.02, -187500.02, -187500.02, 0.00, 0.00, 0.00
194, -187500.02, -187500.02, -187500.02, -187500.02, -187500.02, -187500.02, -187500.02, -187500.02, 0.00, 0.00, 0.00
195, -187500.02, -187500.02, -187500.02, -187500.02, -187500.02, -187500.02, -187500.02, -187500.02, 0.00, 0.00, 0.00
196, -187500.02, -187500.02, -187500.02, -187500.02, -187500.02, -187500.02, -187500.02, -187500.02, 0.00, 0.00, 0.00
197, -187500.02, -187500.02, -187500.02, -187500.02, -187500.02, -187500.02, -187500.02, -187500.02, 0.00, 0.00, 0.00
198, -187500.02, -187500.02, -187500.02, -187500.02, -187500.02, -187500.02, -187500.02, -187500.02, 0.00, 0.00, 0.00
199, -187500.02, -187500.02, -187500.02, -187500.02, -187500.02, -187500.02, -187500.02, -187500.02, 0.00, 0.00, 0.00
200, -187500.02, -187500.02, -187500.02, -187500.02, -187500.02, -187500.02, -187500.02, -187500.02, 0.00, 0.00, 0.00
201, -187500.02, -187500.02, -187500.02, -187500.02, -187500.02, -187500.02, -187500.02, -187500.02, -0.03, -0.40, 0.00
202, -187500.02, -187500.02, -187500.02, -187500.02, -187500.02, -187500.02, -187500.02, -187500.02, 0.00, 0.00, 0.00
203, -187500.02, -187500.02, -187500.02, -187500.02, -187500.02, -187500.02, -187500.02, -187500.02, 0.00, 0.00, 0.00
204, -187500.02, -187500.02, -187500.02, -187500.02, -187500.02, -187500.02, -187500.02, -187500.02, 0.00, 0.00, 0.00
205, -187500.02, -187500.02, -187500.02, -187500.02, -187500.02, -187500.02, -187500.02, -187500.02, 0.00, 0.00, 0.00
206, -187500.02, -187500.02, -187500.02, -187500.02, -187500.02, -187500.02, -187500.02, -187500.02, 0.00, 0.00, 0.00
207, -187500.02, -187500.02, -187500.02, -187500.02, -187500.02, -187500.02, -187500.02, -187500.02, 0.00, 0.00, 0.00
208, -187500.02, -187500.02, -187500.02, -187500.02, -187500.02, -187500.02, -187500.02, -187500.02, 0.00, 0.00, 0.00
209, -187500.02, -187500.02, -187500.02, -187500.02, -187500.02, -187500.02, -187500.02, -187500.02, 0.00, 0.00, 0.00
210, -187500.02, -187500.02, -187500.02, -187500.02, -187500.02, -187500.02, -187500.02, -187500.02, 0.00, 0.00, 0.00
211, -187500.02, -187500.02, -187500.02, -187500.02, -187500.02, -187500.02, -187500.02, -187500.02, 0.01, -0.41, 0.39
212, -187500.02, -187500.02, -187500.02, -187500.02, -187500.02, -187500.02, -187500.02, -187500.02, 0.00, 0.00, 0.00
213, -187500.02, -187500.02, -187500.02, -187500.02, -187500.02, -187500.02, -187500.02, -187500.02, 0.00, 0.00, 0.00
214, -187500.02, -187500.02, -187500.02, -187500.02, -187500.02, -187500.02, -187500.02, -187500.02, 0.00, 0.00, 0.00
215, -187500.02, -187500.02, -187500.02, -187500.02, -187500.02, -187500.02, -187500.02, -187500.02, 0.00, 0.00, 0.00
216, -187500.02, -187500.02, -187500.02, -187500.02, -187500.02, -187500.02, -187500.02, -187500.02, 0.00, 0.00, 0.00
217, -187500.02, -187500.02, -187500.02, -187500.02, -187500.02, -187500.02, -187500.02, -187500.02, 0.00, 0.00, 0.00
218, -187500.02, -187500.02, -187500.02, -187500.02, -187500.02, -187500.02, -187500.02, -187500.02, 0.00, 0.00, 0.00
219, -187500.02, -187500.02, -187500.02, -187500.02, -187500.02, -187500.02, -187500.02, -187500.02, 0.00, 0.00, 0.00
220, -187500.02, -187500.02, -187500.02, -187500.02, -187500.02, -187500.02, -187500.02, -187500.02, 0.00, 0.00, 0.00
221, -187500.02, -187500.02, -187500.02, -187500.02, -187500.02, -187500.02, -187500.02, -187500.02, 0.00, 0.00, 0.00
222, -187500.02, -187500.02, -187500.02, -187500.02, -187500.02, -187500.02, -187500.02, -187500.02, 0.00, -0.39, 0.03
223, -187500.02, -187500.02, -187500.02, -187500.02, -187500.02, -187500.02, -187500.02, -187500.02, 0.00, 0.00, 0.00
224, -187500.02, -187500.02, -187500.02, -187500.02, -187500.02, -187500.02, -187500.02, -187500.02, 0.00, 0.00, 0.00
225, -187500.02, -187500.02, -187500.02, -187500.02, -187500.02, -187500.02, -187500.02, -187500.02, 0.00, 0.00, 0.00
226, -187500.02, -187500.02, -187500.02, -187500.02, -187500.02, -187500.02, -187500.02, -187500.02, 0.00, 0.00, 0.00
227, -187500.02, -187500.02, -187500.02, -187500.02, -187500.02, -187500.02, -187500.02, -187500.02, 0.00, 0.00, 0.00
228, -187500.02, -187500.02, -187500.02, -187500.02, -187500.02, -187500.02, -187500.02, -187500.02, 0.00, 0.00, 0.00
229, -187500.02, -187500.02, -187500.02, -187500.02, -187500.02, -187500.02, -187500.02, -187500.02, 0.00, 0.00, 0.00
230, -187500.02, -187500.02, -187500.02, -187500.02, -187500.02, -187500.02, -187500.02, -187500.02, 0.00, 0.00, 0.00
231, -187500.02, -187500.02, -187500.02, -187500.02, -187500.02, -187500.02, -187500.02, -187500.02, 0.00, 0.00, 0.00
232, -187500.02, -187500.02, -187500.02, -187500.02, -187500.02, -187500.02, -187500.02, -187500.02, -0.03, -0.41, 0.39
233, -187500.02, -187500.02, -187500.02, -187500.02, -187500.02, -187500.02, -187500.02, -187500.02, 0.00, 0.00, 0.00
234, -187500.02, -187500.02, -187500.02, -187500.02, -187500.02, -187500.02, -187500.02, -187500.02, 0.00, 0.00, 0.00
235, -187500.02, -187500.02, -187500.02, -187500.02, -187500.02, -187500.02, -187500.02, -187500.02, 0.00, 0.00, 0.00
236, -187500.02, -187500.02, -187500.02, -187500.02, -187500.02, -187500.02, -187500.02, -187500.02, 0.00, 0.00, 0.00
237, -187500.02, -187500.02, -187500.02, -187500.02, -187500.02, -187500.02, -187500.02, -187500.02, 0.00, 0.00, 0.00
238, -187500.02, -187500.02, -187500.02, -187500.02, -187500.02, -187500.02, -187500.02, -187500.02, 0.00, 0.00, 0.00
239, -187500.02, -187500.02, -187500.02, -187500.02, -187500.02, -187500.02, -187500.02, -187500.02, 0.00, 0.00, 0.00
240, -187500.02, -187500.02, -187500.02, -187500.02, -187500.02, -187500.02, -187500.02, -187500.02, 0.00, 0.00, 0.00
241, -187500.02, -187500.02, -187500.02, -187500.02, -187500.02, -187500.02, -187500.02, -187500.02, 0.00, 0.00, 0.00
242, -187500.02, -187500.02, -187500.02, -187500.02, -187500.02, -187500.02, -187500.02, -187500.02, 0.00, 0.00, 0.00
243, -187500.02, -187500.02, -187500.02, -187500.02, -187500.02, -187500.02, -187500.02, -187500.02, -0.05, -0.25, 0.39
244, -187500.02, -187500.02, -187500.02, -187500.02, -187500.02, -187500.02, -187500.02, -187500.02, 0.00, 0.00, 0.00
245, -187500.02, -187500.02, -187500.02, -187500.02, -187500.02, -187500.02, -187500.02, -187500.02, 0.00, 0.00, 0.00
246, -187500.02, -187500.02, -187500.02, -187500.02, -187500.02, -187500.02, -187500.02, -187500.02, 0.00, 0.00, 0.00
247, -187500.02, -187500.02, -187500.02, -187500.02, -187500.02, -187500.02, -187500.02, -187500.02, 0.00, 0.00, 0.00
248, -187500.02, -187500.02, -187500.02, -187500.02, -187500.02, -187500.02, -187500.02, -187500.02, 0.00, 0.00, 0.00
