%OpenBCI Raw EEG Data
%
%Sample Rate = 250.0 Hz
%First Column = SampleIndex
%Other Columns = EEG data in microvolts followed by Accel Data (in G) interleaved with Aux Data
0, -174102.78, -174040.22, -174612.81, -173564.00, -174378.06, -173730.53, -174307.03, -179056.16, -0.15, -0.16, 0.44
1, -174061.44, -174015.95, -174602.67, -173544.91, -174356.50, -173727.05, -174296.33, -179046.77, 0.00, 0.00, 0.00
2, -174036.02, -174007.36, -174609.97, -173547.88, -174354.48, -173743.97, -174304.95, -179057.92, 0.00, 0.00, 0.00
3, -174026.25, -174015.19, -174633.69, -173572.48, -174369.39, -173756.02, -174332.25, -179089.22, 0.00, 0.00, 0.00
4, -173998.44, -174003.78, -174637.08, -173571.50, -174362.83, -173745.41, -174336.14, -179095.81, 0.00, 0.00, 0.00
5, -173956.84, -173979.00, -174626.06, -173548.86, -174341.30, -173740.97, -174324.09, -179085.25, 0.00, 0.00, 0.00
6, -173930.14, -173967.80, -174630.11, -173541.19, -174335.13, -173740.39, -174328.45, -179093.28, 0.00, 0.00, 0.00
7, -173921.75, -173974.06, -174652.97, -173552.61, -174348.61, -173749.45, -174353.53, -179123.59, -0.29, -0.31, 0.89
8, -173895.05, -173963.63, -174657.23, -173549.69, -174343.20, -173743.09, -174359.69, -179131.86, 0.00, 0.00, 0.00
9, -173847.97, -173932.31, -174639.27, -173573.03, -174314.41, -173743.09, -174340.72, -179114.25, 0.00, 0.00, 0.00
10, -173813.73, -173915.61, -174637.81, -173601.19, -174302.41, -173739.86, -174339.22, -179115.19, 0.00, 0.00, 0.00
11, -173800.28, -173921.59, -174660.02, -173615.38, -174315.64, -173746.36, -174363.42, -179144.42, 0.00, 0.00, 0.00
12, -173768.88, -173918.00, -174672.94, -173617.66, -174319.03, -173745.42, -174378.11, -179163.11, 0.00, 0.00, 0.00
13, -173538.53, -173887.78, -174657.31, -173589.77, -174292.33, -173742.61, -174361.53, -179147.50, 0.00, 0.00, 0.00
14, -173472.44, -173857.03, -174640.91, -173560.75, -174266.02, -173742.39, -174345.19, -179132.78, 0.00, 0.00, 0.00
15, -173659.50, -173843.41, -174640.95, -173552.50, -174258.17, -173753.16, -174348.86, -179140.00, 0.00, 0.00, 0.00
16, -173848.58, -173826.67, -174639.06, -173547.72, -174247.88, -173747.03, -174350.16, -179143.77, 0.00, 0.00, 0.00
17, -174013.05, -173781.31, -174606.64, -173565.00, -174204.33, -173744.94, -174317.34, -179110.58, -0.29, -0.31, 0.89
18, -174341.20, -173744.81, -174585.02, -173567.48, -174171.16, -173737.63, -174295.67, -179089.97, 0.00, 0.00, 0.00
19, -174623.80, -173738.34, -174594.66, -173565.97, -174170.98, -173752.91, -174306.47, -179105.45, 0.00, 0.00, 0.00
20, -174629.48, -173745.00, -174616.27, -173579.16, -174182.88, -173761.38, -174329.55, -179134.83, 0.00, 0.00, 0.00
21, -174590.50, -173725.22, -174610.72, -173564.47, -174166.39, -173746.63, -174324.13, -179130.31, 0.00, 0.00, 0.00
22, -174546.59, -173701.03, -174600.84, -173549.75, -174146.08, -173749.88, -174313.56, -179121.17, 0.00, 0.00, 0.00
23, -174519.08, -173691.63, -174605.88, -173597.52, -174143.13, -173746.97, -174320.89, -179131.64, 0.00, 0.00, 0.00
24, -174505.86, -173695.72, -174626.08, -173634.41, -174154.30, -173752.27, -174344.09, -179158.55, 0.00, 0.00, 0.00
25, -174472.66, -173678.19, -174623.47, -173621.58, -174141.00, -173750.41, -174341.33, -179158.55, 0.00, 0.00, 0.00
26, -174431.53, -173652.34, -174611.75, -173599.84, -174118.58, -173751.53, -174328.48, -179147.64, 0.00, 0.00, 0.00
27, -174408.44, -173645.98, -174620.11, -173599.36, -174116.03, -173746.34, -174336.98, -179160.00, -0.29, -0.31, 0.88
28, -174401.06, -173655.64, -174644.41, -173617.64, -174132.47, -173757.38, -174364.36, -179193.50, 0.00, 0.00, 0.00
29, -174374.33, -173644.97, -174648.52, -173616.92, -174126.16, -173751.08, -174369.13, -179201.78, 0.00, 0.00, 0.00
30, -174333.03, -173619.78, -174637.45, -173605.48, -174104.19, -173748.67, -174358.28, -179191.50, 0.00, 0.00, 0.00
31, -174306.08, -173609.50, -174642.08, -173608.81, -174098.16, -173742.83, -174362.39, -179198.67, 0.00, 0.00, 0.00
32, -174296.59, -173616.83, -174664.27, -173631.39, -174111.98, -173750.36, -174387.23, -179228.22, 0.00, 0.00, 0.00
33, -174274.13, -173610.02, -174672.31, -173640.13, -174110.36, -173754.13, -174397.05, -179241.16, 0.00, 0.00, 0.00
34, -174233.30, -173583.95, -174660.19, -173625.91, -174087.77, -173752.44, -174384.03, -179229.84, 0.00, 0.00, 0.00
35, -174204.70, -173571.14, -174662.50, -173625.14, -174080.66, -173741.28, -174386.92, -179234.92, 0.00, 0.00, 0.00
36, -174194.63, -173578.30, -174685.31, -173644.59, -174094.47, -173749.48, -174412.31, -179264.47, 0.00, 0.00, 0.00
37, -174175.72, -173576.42, -174698.34, -173652.31, -174097.89, -173754.55, -174427.38, -179284.30, -0.30, -0.31, 0.87
38, -174132.63, -173550.73, -174687.17, -173636.23, -174074.64, -173755.58, -174414.61, -179273.55, 0.00, 0.00, 0.00
39, -174098.11, -173533.95, -174684.23, -173628.34, -174061.80, -173746.05, -174412.09, -179273.28, 0.00, 0.00, 0.00
40, -174079.20, -173533.53, -174699.39, -173637.59, -174067.69, -173766.30, -174430.08, -179295.11, 0.00, 0.00, 0.00
41, -174062.58, -173534.78, -174716.50, -173648.48, -174075.33, -173775.67, -174448.91, -179319.34, 0.00, 0.00, 0.00
42, -174022.56, -173512.63, -174707.95, -173632.48, -174056.88, -173755.02, -174439.88, -179311.80, 0.00, 0.00, 0.00
43, -173983.31, -173491.38, -174701.66, -173617.42, -174040.02, -173760.11, -174432.78, -179306.06, 0.00, 0.00, 0.00
44, -173963.94, -173490.03, -174715.44, -173625.27, -174045.11, -173769.77, -174449.38, -179326.00, 0.00, 0.00, 0.00
45, -173951.55, -173495.52, -174737.58, -173644.17, -174057.63, -173777.25, -174473.91, -179356.72, 0.00, 0.00, 0.00
46, -173912.45, -173367.23, -174730.55, -173634.88, -173983.97, -173769.92, -174465.84, -179350.84, 0.00, 0.00, 0.00
47, -173850.66, -173189.17, -174700.61, -173604.86, -173904.66, -173775.06, -174434.22, -179318.97, 0.00, 0.00, 0.00
48, -173698.22, -173329.95, -174674.61, -173580.59, -174061.75, -173770.53, -174409.47, -179295.77, -0.29, -0.31, 0.88
49, -173464.16, -173508.72, -174660.61, -173573.50, -174338.70, -173766.92, -174398.25, -179287.73, 0.00, 0.00, 0.00
50, -173536.69, -173655.48, -174625.50, -173592.30, -174483.80, -173770.66, -174363.58, -179253.05, 0.00, 0.00, 0.00
51, -173670.56, -173903.16, -174589.81, -173589.03, -174445.02, -173764.78, -174326.81, -179215.92, 0.00, 0.00, 0.00
52, -173842.66, -174232.42, -174578.86, -173577.19, -174423.17, -173766.19, -174316.42, -179207.23, 0.00, 0.00, 0.00
53, -174048.20, -174267.66, -174586.94, -173578.30, -174421.56, -173765.45, -174326.55, -179222.25, 0.00, 0.00, 0.00
54, -174392.34, -174238.08, -174572.50, -173590.84, -174397.31, -173767.91, -174313.45, -179211.91, 0.00, 0.00, 0.00
55, -174620.19, -174203.95, -174551.78, -173608.03, -174365.33, -173761.81, -174292.69, -179191.94, 0.00, 0.00, 0.00
56, -174597.27, -174188.06, -174551.05, -173598.97, -174353.97, -173769.41, -174293.64, -179194.72, 0.00, 0.00, 0.00
57, -174580.95, -174193.06, -174571.86, -173607.58, -174366.58, -173778.17, -174317.53, -179223.45, 0.00, 0.00, 0.00
58, -174554.58, -174186.52, -174581.56, -173604.42, -174366.72, -173771.95, -174328.30, -179237.17, -0.29, -0.31, 0.88
59, -174508.02, -174159.33, -174569.80, -173579.81, -174343.02, -173761.05, -174315.45, -179225.28, 0.00, 0.00, 0.00
60, -174471.19, -174142.45, -174568.33, -173574.08, -174331.19, -173760.41, -174314.16, -179226.27, 0.00, 0.00, 0.00
61, -174452.88, -174142.69, -174584.53, -173629.33, -174338.03, -173762.17, -174332.53, -179249.36, 0.00, 0.00, 0.00
62, -174432.56, -174140.06, -174597.89, -173653.17, -174341.91, -173766.19, -174347.48, -179269.23, 0.00, 0.00, 0.00
63, -174387.56, -174113.91, -174585.94, -173630.80, -174318.72, -173769.55, -174334.13, -179257.39, 0.00, 0.00, 0.00
64, -174347.67, -174092.61, -174579.56, -173612.31, -174302.50, -173769.03, -174327.89, -179253.08, 0.00, 0.00, 0.00
65, -174327.33, -174091.27, -174594.36, -173616.39, -174307.75, -173790.08, -174345.17, -179273.25, 0.00, 0.00, 0.00
66, -174314.13, -174094.45, -174612.30, -173624.02, -174317.25, -173795.33, -174365.89, -179299.34, 0.00, 0.00, 0.00
67, -174274.95, -174072.86, -174604.31, -173604.25, -174298.31, -173775.91, -174358.06, -179293.27, 0.00, 0.00, 0.00
68, -174237.47, -174051.86, -174598.17, -173585.81, -174281.16, -173774.44, -174351.83, -179288.52, -0.30, -0.31, 0.88
69, -174216.70, -174049.31, -174611.23, -173587.38, -174284.30, -173777.36, -174365.59, -179306.78, 0.00, 0.00, 0.00
70, -174204.39, -174055.08, -174632.55, -173597.92, -174297.38, -173785.52, -174389.91, -179337.00, 0.00, 0.00, 0.00
71, -174165.39, -174033.41, -174625.66, -173588.98, -174280.22, -173778.02, -174382.63, -179332.47, 0.00, 0.00, 0.00
72, -174115.72, -174001.39, -174607.03, -173627.14, -174249.88, -173787.36, -174363.73, -179314.05, 0.00, 0.00, 0.00
73, -174088.83, -173993.59, -174613.30, -173651.19, -174247.78, -173786.17, -174372.14, -179325.52, 0.00, 0.00, 0.00
74, -174078.22, -174001.84, -174636.91, -173668.00, -174263.16, -173795.06, -174399.03, -179357.80, 0.00, 0.00, 0.00
75, -174046.13, -173986.67, -174636.92, -173657.22, -174252.45, -173785.19, -174398.72, -179361.09, 0.00, 0.00, 0.00
76, -174003.08, -173961.86, -174626.97, -173635.86, -174231.06, -173782.81, -174386.98, -179351.08, 0.00, 0.00, 0.00
77, -173975.83, -173952.89, -174633.30, -173631.77, -174227.39, -173777.41, -174394.05, -179361.59, 0.00, 0.00, 0.00
78, -173965.86, -173960.52, -174656.50, -173647.50, -174242.61, -173786.13, -174420.25, -179393.47, -0.30, -0.31, 0.88
79, -173937.83, -173950.59, -174661.86, -173642.92, -174237.94, -173783.11, -174424.94, -179402.11, 0.00, 0.00, 0.00
80, -173891.81, -173922.05, -174646.63, -173618.72, -174212.39, -173789.05, -174410.13, -179387.06, 0.00, 0.00, 0.00
81, -173860.27, -173908.38, -174648.02, -173606.97, -174202.66, -173784.94, -174412.17, -179390.89, 0.00, 0.00, 0.00
82, -173847.42, -173914.14, -174670.31, -173616.66, -174215.23, -173792.58, -174436.42, -179420.11, 0.00, 0.00, 0.00
83, -173793.33, -173908.86, -174680.38, -173617.42, -174216.58, -173791.33, -174448.91, -179436.56, 0.00, 0.00, 0.00
84, -173540.03, -173876.20, -174662.06, -173599.09, -174187.45, -173789.19, -174429.78, -179417.92, 0.00, 0.00, 0.00
85, -173553.84, -173840.64, -174639.41, -173626.89, -174154.50, -173789.91, -174407.55, -179396.55, 0.00, 0.00, 0.00
86, -173745.47, -173825.33, -174639.25, -173639.72, -174145.31, -173796.86, -174409.52, -179402.16, 0.00, 0.00, 0.00
87, -173936.84, -173808.81, -174638.44, -173626.11, -174134.86, -173786.66, -174410.56, -179406.53, 0.00, 0.00, 0.00
88, -174117.20, -173764.13, -174607.48, -173602.84, -174092.02, -173783.25, -174379.08, -179374.95, -0.30, -0.31, 0.88
89, -174476.77, -173724.61, -174582.08, -173628.34, -173993.28, -173784.92, -174353.80, -179350.19, 0.00, 0.00, 0.00
90, -174659.66, -173708.20, -174580.55, -173629.38, -173973.20, -173791.58, -174352.91, -179352.89, 0.00, 0.00, 0.00
91, -174628.86, -173693.86, -174581.41, -173621.69, -174194.22, -173789.41, -174355.53, -179359.83, 0.00, 0.00, 0.00
92, -174576.53, -173659.50, -174560.61, -173604.30, -174468.41, -173791.52, -174334.58, -179339.39, 0.00, 0.00, 0.00
93, -174532.55, -173632.70, -174547.94, -173638.52, -174523.80, -173781.09, -174321.41, -179327.41, 0.00, 0.00, 0.00
94, -174509.83, -173627.61, -174558.58, -173654.92, -174524.16, -173796.36, -174333.03, -179343.11, 0.00, 0.00, 0.00
95, -174497.58, -173633.53, -174578.39, -173666.20, -174535.69, -173809.13, -174357.77, -179372.20, 0.00, 0.00, 0.00
96, -174461.06, -173615.42, -174573.06, -173649.02, -174519.64, -173793.23, -174352.31, -179369.53, 0.00, 0.00, 0.00
97, -174418.69, -173591.17, -174562.80, -173626.31, -174497.88, -173794.84, -174340.47, -179358.77, 0.00, 0.00, 0.00
98, -174393.31, -173583.06, -174570.89, -173625.44, -174495.23, -173795.41, -174349.39, -179370.48, -0.30, -0.31, 0.88
99, -174382.81, -173590.73, -174595.27, -173642.42, -174510.14, -173805.34, -174375.88, -179402.38, 0.00, 0.00, 0.00
100, -174352.63, -173578.92, -174597.69, -173634.14, -174502.72, -173796.11, -174379.13, -179409.36, 0.00, 0.00, 0.00
101, -174307.53, -173553.53, -174585.53, -173609.39, -174479.98, -173794.95, -174366.69, -179397.94, 0.00, 0.00, 0.00
102, -174276.92, -173542.20, -174588.59, -173601.83, -174473.11, -173793.61, -174371.20, -179405.08, 0.00, 0.00, 0.00
103, -174263.84, -173548.70, -174611.23, -173613.77, -174485.95, -173800.97, -174396.84, -179435.78, 0.00, 0.00, 0.00
104, -174234.28, -173531.20, -174616.22, -173608.39, -174480.55, -173795.84, -174401.98, -179445.52, 0.00, 0.00, 0.00
105, -174181.27, -173337.92, -174594.72, -173628.20, -174447.84, -173798.08, -174379.08, -179423.28, 0.00, 0.00, 0.00
106, -174132.94, -173262.31, -174578.66, -173649.00, -174421.66, -173797.84, -174363.30, -179408.94, 0.00, 0.00, 0.00
107, -174104.97, -173465.00, -174582.70, -173644.45, -174417.11, -173804.97, -174370.25, -179420.23, 0.00, 0.00, 0.00
108, -174069.09, -173676.30, -174579.97, -173629.11, -174404.44, -173798.75, -174368.91, -179422.72, 0.00, 0.00, 0.00
109, -174007.70, -173999.30, -174552.34, -173611.22, -174365.11, -173794.27, -174339.06, -179393.75, -0.29, -0.31, 0.88
110, -173962.97, -174277.97, -174539.92, -173641.11, -174342.58, -173799.42, -174327.38, -179383.31, 0.00, 0.00, 0.00
111, -173943.97, -174297.09, -174555.55, -173654.08, -174349.39, -173811.42, -174346.48, -179406.25, 0.00, 0.00, 0.00
112, -173924.84, -174295.91, -174570.22, -173660.44, -174355.61, -173811.89, -174364.30, -179428.17, 0.00, 0.00, 0.00
113, -173882.81, -174271.58, -174559.72, -173641.17, -174335.27, -173801.45, -174354.13, -179419.09, 0.00, 0.00, 0.00
114, -173845.27, -174250.45, -174553.02, -173623.14, -174318.00, -173803.22, -174347.53, -179413.63, 0.00, 0.00, 0.00
115, -173826.36, -174249.19, -174567.66, -173626.52, -174323.23, -173803.94, -174363.69, -179434.48, 0.00, 0.00, 0.00
116, -173735.55, -174253.45, -174588.69, -173635.75, -174335.05, -173811.70, -174386.88, -179463.22, 0.00, 0.00, 0.00
117, -173503.59, -174220.67, -174570.83, -173624.28, -174306.59, -173804.80, -174368.02, -179446.30, 0.00, 0.00, 0.00
118, -173596.36, -174177.34, -174541.13, -173646.20, -174266.20, -173803.56, -174337.92, -179416.53, 0.00, 0.00, 0.00
119, -173782.03, -174155.89, -174534.31, -173644.33, -174248.66, -173809.89, -174332.30, -179413.56, -0.28, -0.31, 0.88
120, -173978.75, -174146.33, -174540.09, -173641.58, -174245.80, -173804.47, -174340.56, -179426.44, 0.00, 0.00, 0.00
121, -174186.72, -174111.97, -174520.09, -173617.50, -174215.39, -173800.55, -174319.84, -179407.52, 0.00, 0.00, 0.00
122, -174557.73, -174070.58, -174492.98, -173635.86, -174177.14, -173807.58, -174292.17, -179379.72, 0.00, 0.00, 0.00
123, -174675.25, -174059.64, -174496.95, -173655.25, -174171.30, -173807.83, -174297.38, -179388.14, 0.00, 0.00, 0.00
124, -174663.50, -174068.09, -174521.20, -173670.28, -174187.14, -173817.58, -174324.92, -179420.44, 0.00, 0.00, 0.00
125, -174631.06, -174055.86, -174524.83, -173666.36, -174181.03, -173806.67, -174329.25, -179426.98, 0.00, 0.00, 0.00
126, -174585.22, -174029.58, -174512.72, -173643.81, -174158.91, -173803.56, -174316.27, -179415.23, 0.00, 0.00, 0.00
127, -174553.08, -174017.36, -174514.81, -173634.30, -174150.50, -173805.08, -174319.03, -179420.67, 0.00, 0.00, 0.00
128, -174539.11, -174022.63, -174535.47, -173644.22, -174162.53, -173811.61, -174342.30, -179449.59, 0.00, 0.00, 0.00
129, -174514.80, -174014.41, -174542.48, -173642.31, -174160.77, -173806.20, -174351.98, -179463.02, -0.29, -0.31, 0.88
130, -174472.41, -173988.03, -174530.27, -173621.81, -174137.31, -173809.03, -174339.08, -179450.91, 0.00, 0.00, 0.00
131, -174440.03, -173972.86, -174529.39, -173613.97, -174126.31, -173811.89, -174337.77, -179452.38, 0.00, 0.00, 0.00
132, -174425.00, -173975.83, -174549.48, -173656.83, -174137.00, -173816.13, -174359.02, -179478.58, 0.00, 0.00, 0.00
133, -174403.25, -173972.81, -174562.47, -173677.94, -174139.80, -173813.50, -174373.47, -179497.17, 0.00, 0.00, 0.00
134, -174362.22, -173948.47, -174552.05, -173657.00, -174117.69, -173803.22, -174361.73, -179487.45, 0.00, 0.00, 0.00
135, -174326.50, -173930.47, -174547.38, -173643.70, -174103.56, -173801.48, -174358.39, -179485.58, 0.00, 0.00, 0.00
136, -174305.98, -173930.50, -174562.48, -173649.17, -174110.50, -173803.05, -174376.48, -179508.11, 0.00, 0.00, 0.00
137, -174286.88, -173931.17, -174579.64, -173656.27, -174118.45, -173807.97, -174395.50, -179532.77, 0.00, 0.00, 0.00
138, -174244.67, -173906.33, -174569.55, -173635.70, -174097.11, -173808.09, -174384.69, -179523.27, 0.00, 0.00, 0.00
139, -174204.28, -173885.25, -174562.63, -173620.88, -174050.44, -173804.67, -174377.59, -179516.55, -0.29, -0.31, 0.88
140, -174169.86, -173870.17, -174563.00, -173655.19, -173961.41, -173828.48, -174379.98, -179521.88, 0.00, 0.00, 0.00
141, -174134.98, -173854.36, -174562.89, -173680.61, -174110.83, -173826.36, -174381.95, -179528.38, 0.00, 0.00, 0.00
142, -174081.53, -173819.08, -174540.45, -173657.09, -174371.56, -173815.36, -174358.95, -179506.86, 0.00, 0.00, 0.00
143, -174036.58, -173791.16, -174526.08, -173639.19, -174562.14, -173811.05, -174344.55, -179492.38, 0.00, 0.00, 0.00
144, -174013.27, -173784.38, -174534.44, -173638.88, -174575.20, -173804.83, -174354.78, -179506.05, 0.00, 0.00, 0.00
145, -174002.25, -173790.48, -174557.34, -173651.75, -174588.55, -173814.27, -174380.39, -179536.88, 0.00, 0.00, 0.00
146, -173967.33, -173773.63, -174555.36, -173640.95, -174574.73, -173819.34, -174378.22, -179537.61, 0.00, 0.00, 0.00
147, -173923.97, -173748.67, -174544.81, -173622.42, -174551.97, -173819.55, -174365.84, -179526.80, 0.00, 0.00, 0.00
148, -173898.20, -173741.52, -174552.56, -173624.50, -174549.66, -173813.34, -174376.39, -179539.31, 0.00, 0.00, 0.00
149, -173886.48, -173749.73, -174576.53, -173642.52, -174564.81, -173823.05, -174403.66, -179571.34, -0.29, -0.31, 0.89
150, -173788.88, -173736.70, -174578.89, -173642.77, -174556.75, -173824.28, -174405.97, -179578.30, 0.00, 0.00, 0.00
151, -173536.56, -173697.09, -174553.30, -173658.05, -174519.70, -173823.28, -174379.45, -179552.14, 0.00, 0.00, 0.00
152, -173623.92, -173666.14, -174536.14, -173667.08, -174492.69, -173826.84, -174362.27, -179537.34, 0.00, 0.00, 0.00
153, -173819.59, -173657.48, -174541.55, -173669.30, -174490.36, -173826.97, -174370.84, -179550.33, 0.00, 0.00, 0.00
154, -174003.98, -173635.92, -174535.25, -173655.97, -174473.63, -173821.84, -174364.59, -179547.31, 0.00, 0.00, 0.00
155, -174209.72, -173591.33, -174504.28, -173644.11, -174430.59, -173821.52, -174332.06, -179514.31, 0.00, 0.00, 0.00
156, -174591.30, -173564.22, -174490.67, -173673.52, -174406.91, -173826.56, -174319.75, -179502.77, 0.00, 0.00, 0.00
157, -174699.98, -173567.13, -174509.50, -173688.52, -174416.44, -173833.17, -174340.63, -179527.50, 0.00, 0.00, 0.00
158, -174678.27, -173565.69, -174523.48, -173691.13, -174421.66, -173832.03, -174357.17, -179548.16, 0.00, 0.00, 0.00
159, -174633.25, -173488.64, -174511.84, -173666.91, -174398.20, -173823.23, -174344.92, -179537.78, 0.00, 0.00, 0.00
160, -174584.78, -173272.86, -174497.73, -173644.80, -174373.95, -173822.97, -174330.88, -179525.61, -0.29, -0.31, 0.89
161, -174548.45, -173379.70, -174497.31, -173638.42, -174364.34, -173832.55, -174332.78, -179530.03, 0.00, 0.00, 0.00
162, -174514.39, -173591.69, -174499.61, -173634.02, -174357.38, -173832.73, -174337.13, -179538.19, 0.00, 0.00, 0.00
163, -174453.03, -173800.75, -174471.88, -173639.55, -174318.83, -173823.63, -174308.59, -179510.70, 0.00, 0.00, 0.00
164, -174399.19, -174182.05, -174451.77, -173654.86, -174288.33, -173818.72, -174288.28, -179490.97, 0.00, 0.00, 0.00
165, -174372.59, -174339.23, -174461.22, -173654.56, -174288.50, -173836.58, -174299.33, -179505.53, 0.00, 0.00, 0.00
166, -174357.55, -174344.58, -174482.31, -173664.94, -174301.42, -173844.73, -174323.08, -179534.55, 0.00, 0.00, 0.00
167, -174319.94, -174324.52, -174477.91, -173649.31, -174286.41, -173828.70, -174318.44, -179532.73, 0.00, 0.00, 0.00
168, -174275.34, -174297.88, -174465.95, -173634.89, -174262.39, -173828.86, -174305.56, -179521.53, 0.00, 0.00, 0.00
169, -174243.70, -174285.83, -174470.27, -173678.19, -174256.78, -173825.75, -174311.34, -179530.19, 0.00, 0.00, 0.00
170, -174229.36, -174291.13, -174492.22, -173708.03, -174270.53, -173833.59, -174336.61, -179560.03, -0.29, -0.31, 0.89
171, -174196.48, -174275.36, -174492.98, -173699.17, -174261.17, -173828.44, -174337.39, -179563.05, 0.00, 0.00, 0.00
172, -174154.95, -174250.48, -174483.17, -173678.84, -174240.25, -173834.36, -174326.59, -179552.98, 0.00, 0.00, 0.00
173, -174130.66, -174241.36, -174489.16, -173676.88, -174235.89, -173830.16, -174333.34, -179563.02, 0.00, 0.00, 0.00
174, -174124.78, -174248.45, -174513.30, -173690.23, -174250.42, -173839.66, -174358.89, -179594.94, 0.00, 0.00, 0.00
175, -174103.56, -174238.80, -174518.55, -173686.50, -174246.75, -173834.72, -174364.95, -179605.84, 0.00, 0.00, 0.00
176, -174064.14, -174210.97, -174503.73, -173662.34, -174221.67, -173839.25, -174349.61, -179591.56, 0.00, 0.00, 0.00
177, -174037.83, -174196.75, -174504.36, -173652.39, -174212.02, -173838.03, -174351.94, -179595.50, 0.00, 0.00, 0.00
178, -174033.11, -174203.80, -174528.19, -173669.05, -174225.69, -173846.39, -174376.88, -179626.91, 0.00, 0.00, 0.00
179, -174018.42, -174200.23, -174540.39, -173674.91, -174228.88, -173844.53, -174390.73, -179645.48, 0.00, 0.00, 0.00
180, -173983.27, -174175.66, -174530.17, -173654.81, -174207.61, -173839.14, -174379.59, -179635.38, -0.29, -0.32, 0.89
181, -173953.42, -174157.55, -174526.13, -173674.25, -174193.33, -173838.27, -174375.94, -179633.94, 0.00, 0.00, 0.00
182, -173939.19, -174157.83, -174542.44, -173717.14, -174200.58, -173859.50, -174394.78, -179656.25, 0.00, 0.00, 0.00
183, -173924.55, -174157.95, -174557.97, -173726.83, -174206.86, -173863.39, -174412.27, -179678.77, 0.00, 0.00, 0.00
184, -173891.31, -174134.83, -174549.17, -173712.20, -174186.17, -173840.17, -174402.30, -179670.95, 0.00, 0.00, 0.00
185, -173805.17, -174114.72, -174544.41, -173702.42, -174170.53, -173843.34, -174397.61, -179667.41, 0.00, 0.00, 0.00
186, -173579.31, -174107.28, -174550.88, -173704.50, -174169.13, -173851.95, -174407.50, -179680.59, 0.00, 0.00, 0.00
187, -173670.05, -174097.44, -174555.08, -173698.73, -174165.75, -173845.52, -174414.91, -179692.59, 0.00, 0.00, 0.00
188, -173838.47, -174059.02, -174530.73, -173670.39, -174101.78, -173840.47, -174390.22, -179669.17, 0.00, 0.00, 0.00
189, -173992.16, -174007.41, -174493.89, -173675.00, -173971.31, -173850.67, -174352.30, -179629.28, 0.00, 0.00, 0.00
190, -174194.94, -173968.38, -174469.64, -173666.09, -174088.44, -173848.58, -174329.39, -179607.09, -0.30, -0.32, 0.89
191, -174584.86, -173946.70, -174464.23, -173650.61, -174356.20, -173849.36, -174325.19, -179606.56, 0.00, 0.00, 0.00
192, -174682.05, -173915.05, -174446.53, -173654.55, -174569.52, -173845.84, -174313.94, -179590.05, 0.00, 0.00, 0.00
193, -174631.31, -173884.66, -174429.13, -173682.23, -174562.94, -173840.78, -174307.25, -179572.48, 0.00, 0.00, 0.00
194, -174604.92, -173876.94, -174437.56, -173684.27, -174560.55, -173833.80, -174316.67, -179585.16, 0.00, 0.00, 0.00
195, -174592.27, -173884.66, -174460.55, -173695.83, -174575.64, -173843.45, -174343.16, -179617.42, 0.00, 0.00, 0.00
196, -174558.41, -173871.02, -174462.38, -173685.41, -174566.63, -173845.53, -174345.45, -179622.20, 0.00, 0.00, 0.00
197, -174511.70, -173845.30, -174450.64, -173661.67, -174542.91, -173841.73, -174332.45, -179610.08, 0.00, 0.00, 0.00
198, -174482.94, -173835.70, -174455.22, -173653.88, -174536.45, -173831.88, -174337.14, -179618.88, 0.00, 0.00, 0.00
199, -174469.27, -173842.50, -174477.23, -173663.92, -174549.28, -173839.41, -174361.95, -179649.95, 0.00, 0.00, 0.00
200, -174438.38, -173830.77, -174480.33, -173659.89, -174543.81, -173846.03, -174367.27, -179658.13, -0.30, -0.31, 0.88
201, -174387.20, -173797.92, -174461.94, -173681.97, -174514.28, -173846.75, -174347.38, -179638.75, 0.00, 0.00, 0.00
202, -174350.02, -173779.69, -174458.36, -173701.14, -174499.80, -173857.88, -174344.58, -179637.75, 0.00, 0.00, 0.00
203, -174334.69, -173783.89, -174478.47, -173709.45, -174510.44, -173867.84, -174367.83, -179665.48, 0.00, 0.00, 0.00
204, -174314.09, -173781.50, -174492.08, -173709.50, -174514.55, -173865.61, -174382.47, -179684.69, 0.00, 0.00, 0.00
205, -174271.03, -173756.16, -174481.27, -173685.31, -174492.63, -173848.52, -174370.92, -179674.64, 0.00, 0.00, 0.00
206, -174235.22, -173738.86, -174477.16, -173670.17, -174479.25, -173848.33, -174367.25, -179673.73, 0.00, 0.00, 0.00
207, -174215.61, -173741.53, -174493.72, -173675.69, -174486.63, -173852.11, -174387.34, -179697.98, 0.00, 0.00, 0.00
208, -174194.06, -173741.67, -174508.09, -173678.50, -174491.66, -173855.64, -174404.58, -179720.36, 0.00, 0.00, 0.00
209, -174148.17, -173714.56, -174496.16, -173676.78, -174467.14, -173857.11, -174389.75, -179707.28, 0.00, 0.00, 0.00
210, -174106.92, -173690.53, -174486.47, -173710.70, -174447.47, -173849.00, -174379.50, -179698.30, -0.30, -0.30, 0.88
211, -174086.56, -173687.70, -174499.22, -173722.38, -174451.20, -173871.69, -174394.58, -179716.61, 0.00, 0.00, 0.00
212, -174074.78, -173693.25, -174520.38, -173733.55, -174462.72, -173884.25, -174418.41, -179746.16, 0.00, 0.00, 0.00
213, -174040.48, -173674.61, -174515.47, -173718.17, -174447.09, -173864.09, -174412.67, -179743.16, 0.00, 0.00, 0.00
214, -174003.88, -173652.97, -174508.36, -173700.03, -174428.47, -173860.41, -174404.31, -179735.94, 0.00, 0.00, 0.00
215, -173981.06, -173646.47, -174517.16, -173697.88, -174427.63, -173875.02, -174413.88, -179750.28, 0.00, 0.00, 0.00
216, -173969.61, -173651.02, -174538.63, -173709.02, -174439.88, -173881.75, -174437.75, -179780.23, 0.00, 0.00, 0.00
217, -173936.48, -173634.17, -174536.88, -173696.25, -174426.23, -173865.88, -174435.27, -179781.52, 0.00, 0.00, 0.00
218, -173894.84, -173610.27, -174526.38, -173673.78, -174405.20, -173863.78, -174425.39, -179770.58, 0.00, 0.00, 0.00
219, -173861.08, -173602.13, -174532.98, -173668.38, -174401.92, -173869.16, -174432.53, -179780.70, 0.00, 0.00, 0.00
220, -173682.39, -173607.00, -174553.50, -173678.48, -174414.61, -173875.88, -174456.61, -179811.89, 0.00, 0.00, 0.00
221, -173578.59, -173489.94, -174540.14, -173680.95, -174390.61, -173869.39, -174443.45, -179801.89, -0.30, -0.31, 0.89
222, -173703.27, -173263.31, -174501.19, -173688.61, -174341.19, -173865.94, -174403.69, -179761.13, 0.00, 0.00, 0.00
223, -173845.06, -173365.17, -174476.28, -173688.05, -174305.77, -173862.03, -174378.89, -179736.16, 0.00, 0.00, 0.00
224, -174005.13, -173540.81, -174469.98, -173713.73, -174290.78, -173855.69, -174375.70, -179735.33, 0.00, 0.00, 0.00
225, -174155.53, -173703.92, -174451.36, -173689.13, -174262.44, -173862.05, -174359.17, -179720.48, 0.00, 0.00, 0.00
226, -174418.92, -173905.34, -174410.91, -173684.20, -174210.86, -173856.98, -174325.20, -179678.50, 0.00, 0.00, 0.00
227, -174702.33, -174277.64, -174396.28, -173708.56, -174186.73, -173848.53, -174321.31, -179665.47, 0.00, 0.00, 0.00
228, -174716.55, -174373.48, -174416.38, -173719.52, -174197.13, -173869.45, -174343.59, -179692.80, 0.00, 0.00, 0.00
229, -174697.58, -174369.78, -174429.92, -173720.23, -174200.77, -173870.55, -174358.95, -179712.52, 0.00, 0.00, 0.00
230, -174655.63, -174343.17, -174418.56, -173696.30, -174179.67, -173862.95, -174347.09, -179701.69, 0.00, 0.00, 0.00
231, -174619.20, -174323.97, -174413.98, -173681.63, -174164.78, -173867.52, -174342.27, -179699.02, -0.30, -0.31, 0.88
232, -174601.52, -174324.69, -174429.72, -173689.13, -174171.53, -173869.72, -174360.41, -179721.08, 0.00, 0.00, 0.00
233, -174584.94, -174325.50, -174447.02, -173694.69, -174179.98, -173871.83, -174380.13, -179745.81, 0.00, 0.00, 0.00
234, -174543.56, -174301.56, -174437.52, -173684.17, -174159.56, -173857.70, -174369.59, -179736.92, 0.00, 0.00, 0.00
235, -174501.45, -174275.56, -174426.44, -173716.05, -174138.03, -173862.45, -174358.73, -179725.94, 0.00, 0.00, 0.00
236, -174483.44, -174273.23, -174440.30, -173732.70, -174142.97, -173864.83, -174373.69, -179745.70, 0.00, 0.00, 0.00
237, -174472.38, -174278.77, -174460.92, -173742.16, -174155.13, -173871.27, -174397.02, -179775.92, 0.00, 0.00, 0.00
238, -174434.94, -174258.06, -174454.47, -173723.30, -174093.17, -173861.61, -174390.00, -179771.98, 0.00, 0.00, 0.00
239, -174382.36, -174221.66, -174432.41, -173690.61, -174004.55, -173869.70, -174367.98, -179749.53, 0.00, 0.00, 0.00
240, -174332.92, -174191.36, -174416.73, -173700.73, -174163.33, -173879.05, -174353.69, -179736.58, 0.00, 0.00, 0.00
241, -174301.42, -174178.69, -174419.53, -173735.16, -174456.34, -173886.02, -174359.20, -179745.14, -0.30, -0.30, 0.88
242, -174264.13, -174158.91, -174414.17, -173720.03, -174631.88, -173871.67, -174354.22, -179741.72, 0.00, 0.00, 0.00
243, -174221.53, -174133.78, -174403.06, -173696.61, -174618.02, -173867.42, -174342.23, -179731.25, 0.00, 0.00, 0.00
244, -174196.06, -174125.52, -174411.39, -173691.28, -174615.16, -173863.23, -174350.78, -179742.89, 0.00, 0.00, 0.00
245, -174186.09, -174132.69, -174435.41, -173702.80, -174630.17, -173872.30, -174377.69, -179775.44, 0.00, 0.00, 0.00
246, -174157.83, -174122.14, -174438.13, -173694.11, -174623.05, -173870.44, -174381.75, -179783.52, 0.00, 0.00, 0.00
247, -174110.72, -174093.39, -174423.33, -173678.03, -174597.20, -173870.91, -174366.11, -179769.27, 0.00, 0.00, 0.00
248, -174071.30, -174073.56, -174417.81, -173716.91, -174581.25, -173877.66, -174361.69, -179767.30, 0.00, 0.00, 0.00
249, -174055.70, -174078.11, -174436.73, -173746.23, -174591.92, -173891.14, -174383.91, -179794.05, 0.00, 0.00, 0.00
250, -174030.97, -174072.83, -174446.34, -173744.69, -174591.27, -173885.72, -174394.42, -179809.39, 0.00, 0.00, 0.00
251, -173986.36, -174046.75, -174435.75, -173719.89, -174568.91, -173879.41, -174382.02, -179797.66, -0.29, -0.31, 0.88
252, -173952.88, -174030.66, -174434.75, -173705.92, -174558.05, -173887.69, -174381.08, -179799.53, 0.00, 0.00, 0.00
253, -173938.30, -174034.83, -174454.94, -173713.59, -174568.17, -173893.53, -174404.00, -179826.95, 0.00, 0.00, 0.00
254, -173904.20, -174033.83, -174468.97, -173716.50, -174572.58, -173893.70, -174420.14, -179849.23, 0.00, 0.00, 0.00
255, -173668.89, -174004.19, -174453.02, -173694.33, -174545.34, -173881.23, -174403.22, -179833.30, 0.00, 0.00, 0.00
0, -173603.84, -173965.47, -174428.41, -173709.13, -174509.58, -173881.95, -174378.89, -179808.72, 0.00, 0.00, 0.00
1, -173783.48, -173946.23, -174423.19, -173721.22, -174495.95, -173895.84, -174376.97, -179808.80, 0.00, 0.00, 0.00
2, -173977.45, -173933.48, -174425.56, -173711.66, -174489.69, -173888.55, -174381.64, -179818.25, 0.00, 0.00, 0.00
3, -174148.33, -173892.67, -174399.69, -173690.42, -174452.81, -173876.06, -174355.02, -179792.64, 0.00, 0.00, 0.00
4, -174461.63, -173852.95, -174373.95, -173714.16, -174415.50, -173877.08, -174338.81, -179765.33, 0.00, 0.00, 0.00
5, -174747.20, -173844.70, -174380.03, -173723.61, -174411.50, -173882.78, -174353.81, -179775.55, -0.30, -0.31, 0.89
6, -174751.97, -173849.50, -174401.52, -173736.28, -174423.69, -173890.00, -174377.69, -179805.86, 0.00, 0.00, 0.00
7, -174712.19, -173830.34, -174396.53, -173719.56, -174408.02, -173883.44, -174373.03, -179803.11, 0.00, 0.00, 0.00
8, -174666.97, -173804.64, -174383.97, -173696.89, -174385.42, -173895.05, -174360.23, -179790.52, 0.00, 0.00, 0.00
9, -174641.02, -173798.06, -174392.66, -173695.31, -174383.50, -173893.66, -174369.50, -179803.03, 0.00, 0.00, 0.00
10, -174629.69, -173805.17, -174415.86, -173708.13, -174398.52, -173902.88, -174395.36, -179835.53, 0.00, 0.00, 0.00
11, -174597.27, -173791.09, -174416.28, -173698.31, -174388.59, -173889.55, -174395.91, -179839.77, 0.00, 0.00, 0.00
12, -174551.27, -173762.86, -174402.30, -173712.08, -174363.11, -173886.64, -174381.47, -179825.67, 0.00, 0.00, 0.00
13, -174519.83, -173749.41, -174403.59, -173740.69, -174355.25, -173891.52, -174383.81, -179830.59, 0.00, 0.00, 0.00
14, -174509.00, -173757.00, -174426.03, -173753.83, -174369.80, -173899.31, -174409.83, -179863.47, 0.00, 0.00, 0.00
15, -174480.92, -173747.38, -174431.63, -173747.02, -174365.17, -173892.45, -174415.78, -179873.69, -0.29, -0.31, 0.89
16, -174435.41, -173719.14, -174417.50, -173723.39, -174340.58, -173889.77, -174401.22, -179859.41, 0.00, 0.00, 0.00
17, -174404.78, -173705.69, -174418.39, -173715.38, -174332.17, -173886.39, -174403.02, -179863.83, 0.00, 0.00, 0.00
18, -174392.17, -173711.88, -174440.41, -173725.16, -174345.59, -173892.81, -174426.33, -179893.63, 0.00, 0.00, 0.00
19, -174368.67, -173707.94, -174451.22, -173723.66, -174346.55, -173892.47, -174438.28, -179911.06, 0.00, 0.00, 0.00
20, -174324.36, -173682.08, -174438.81, -173707.05, -174322.28, -173896.55, -174425.36, -179898.14, 0.00, 0.00, 0.00
21, -174285.17, -173661.52, -174433.23, -173743.44, -174305.02, -173887.61, -174420.36, -179893.38, 0.00, 0.00, 0.00
22, -174266.98, -173663.48, -174450.55, -173767.63, -174314.36, -173890.44, -174440.25, -179918.02, 0.00, 0.00, 0.00
23, -174247.17, -173663.03, -174465.28, -173769.77, -174320.33, -173896.09, -174457.30, -179940.14, 0.00, 0.00, 0.00
24, -174202.30, -173636.56, -174452.47, -173745.11, -174296.81, -173896.20, -174443.88, -179927.22, 0.00, 0.00, 0.00
25, -174164.16, -173616.31, -174444.92, -173728.19, -174279.92, -173902.09, -174436.83, -179921.23, 0.00, 0.00, 0.00
26, -174145.44, -173615.84, -174460.19, -173731.03, -174285.98, -173905.34, -174453.81, -179942.95, -0.29, -0.31, 0.89
27, -174132.00, -173617.86, -174480.97, -173738.67, -174297.31, -173910.05, -174475.45, -179972.58, 0.00, 0.00, 0.00
28, -174093.22, -173467.69, -174472.50, -173724.19, -174278.22, -173901.19, -174466.95, -179966.83, 0.00, 0.00, 0.00
29, -174038.30, -173328.00, -174449.41, -173740.27, -174243.16, -173896.05, -174443.25, -179941.94, 0.00, 0.00, 0.00
30, -173998.06, -173504.22, -174442.78, -173746.56, -174225.67, -173897.27, -174437.34, -179938.53, 0.00, 0.00, 0.00
31, -173968.92, -173719.67, -174448.30, -173742.36, -174222.67, -173897.06, -174444.86, -179951.30, 0.00, 0.00, 0.00
32, -173790.66, -173954.95, -174423.42, -173722.22, -174150.14, -173895.83, -174420.33, -179926.89, 0.00, 0.00, 0.00
33, -173573.84, -174302.83, -174379.28, -173732.89, -174024.08, -173900.92, -174376.25, -179879.50, 0.00, 0.00, 0.00
34, -173698.11, -174357.58, -174349.13, -173710.16, -174151.39, -173901.59, -174358.59, -179850.64, 0.00, 0.00, 0.00
35, -173874.11, -174328.20, -174335.08, -173708.45, -174407.81, -173896.97, -174356.09, -179842.58, 0.00, 0.00, 0.00
36, -174038.66, -174287.03, -174308.67, -173721.94, -174610.13, -173894.86, -174357.77, -179817.47, -0.29, -0.31, 0.88
37, -174213.63, -174237.25, -174273.28, -173711.36, -174585.38, -173895.09, -174355.53, -179779.50, 0.00, 0.00, 0.00
38, -174584.33, -174207.84, -174259.27, -173732.59, -174561.00, -173894.83, -174358.70, -179766.92, 0.00, 0.00, 0.00
39, -174789.61, -174211.14, -174278.16, -173744.00, -174571.31, -173900.72, -174382.09, -179794.83, 0.00, 0.00, 0.00
40, -174765.98, -174201.00, -174283.52, -173737.06, -174566.25, -173896.28, -174388.22, -179804.84, 0.00, 0.00, 0.00
41, -174722.03, -174173.33, -174270.63, -173713.27, -174541.14, -173899.84, -174373.70, -179791.19, 0.00, 0.00, 0.00
42, -174690.97, -174159.58, -174271.56, -173705.50, -174531.48, -173894.91, -174374.56, -179794.75, 0.00, 0.00, 0.00
43, -174679.45, -174165.50, -174293.67, -173718.58, -174544.78, -173901.75, -174398.91, -179825.52, 0.00, 0.00, 0.00
44, -174658.98, -174163.05, -174308.55, -173719.88, -174549.22, -173901.27, -174414.19, -179845.73, 0.00, 0.00, 0.00
45, -174613.19, -174134.97, -174294.97, -173716.91, -174523.47, -173899.06, -174398.56, -179831.61, 0.00, 0.00, 0.00
46, -174573.05, -174113.44, -174286.98, -173751.22, -174505.00, -173899.50, -174391.36, -179825.23, -0.29, -0.31, 0.88
47, -174557.19, -174115.66, -174303.25, -173763.38, -174513.50, -173902.63, -174411.48, -179849.53, 0.00, 0.00, 0.00
48, -174538.11, -174115.92, -174317.77, -173764.95, -174519.44, -173903.70, -174428.27, -179872.34, 0.00, 0.00, 0.00
49, -174496.13, -174090.78, -174306.92, -173740.81, -174497.77, -173904.66, -174417.27, -179862.20, 0.00, 0.00, 0.00
50, -174456.16, -174068.23, -174299.55, -173723.09, -174480.23, -173910.89, -174409.83, -179855.73, 0.00, 0.00, 0.00
51, -174436.47, -174067.25, -174313.67, -173726.72, -174485.73, -173911.20, -174426.84, -179876.48, 0.00, 0.00, 0.00
52, -174424.33, -174072.72, -174335.64, -173735.67, -174498.30, -173917.91, -174450.48, -179906.14, 0.00, 0.00, 0.00
53, -174385.28, -174051.44, -174329.23, -173721.97, -174480.86, -173907.41, -174442.91, -179900.64, 0.00, 0.00, 0.00
54, -174339.16, -174023.91, -174315.58, -173747.30, -174456.20, -173905.47, -174429.94, -179887.64, 0.00, 0.00, 0.00
55, -174312.80, -174016.86, -174324.06, -173772.80, -174454.91, -173901.06, -174439.88, -179900.52, 0.00, 0.00, 0.00
56, -174298.94, -174021.78, -174344.98, -173782.70, -174466.80, -173908.69, -174463.45, -179930.22, -0.29, -0.31, 0.88
57, -174262.53, -174003.09, -174341.17, -173766.30, -174451.98, -173909.78, -174459.61, -179930.13, 0.00, 0.00, 0.00
58, -174219.66, -173978.19, -174329.83, -173742.36, -174430.23, -173906.31, -174448.19, -179919.58, 0.00, 0.00, 0.00
59, -174193.44, -173969.41, -174335.02, -173735.72, -174426.64, -173922.19, -174454.63, -179928.77, 0.00, 0.00, 0.00
60, -174183.50, -173976.83, -174358.95, -173747.14, -174441.34, -173938.77, -174481.27, -179961.78, 0.00, 0.00, 0.00
61, -174155.83, -173965.47, -174362.91, -173740.02, -174434.81, -173925.83, -174485.31, -179970.11, 0.00, 0.00, 0.00
62, -174113.22, -173939.91, -174351.41, -173725.31, -174412.58, -173910.36, -174473.05, -179958.58, 0.00, 0.00, 0.00
63, -174077.02, -173921.58, -174347.33, -173765.11, -174399.14, -173926.22, -174469.58, -179957.11, 0.00, 0.00, 0.00
64, -174061.77, -173924.89, -174367.09, -173801.66, -174409.56, -173936.00, -174491.69, -179984.63, 0.00, 0.00, 0.00
65, -174037.61, -173918.66, -174376.09, -173805.23, -174409.25, -173930.72, -174501.09, -179999.13, 0.00, 0.00, 0.00
66, -173995.00, -173893.55, -174364.56, -173782.38, -174386.56, -173920.80, -174488.70, -179986.92, -0.29, -0.31, 0.88
67, -173961.70, -173878.14, -174364.13, -173771.83, -174375.39, -173921.39, -174489.17, -179988.73, 0.00, 0.00, 0.00
68, -173946.98, -173884.16, -174386.11, -173786.08, -174389.05, -173928.39, -174514.14, -180019.73, 0.00, 0.00, 0.00
69, -173798.31, -173879.78, -174398.47, -173789.66, -174391.23, -173927.72, -174527.44, -180039.11, 0.00, 0.00, 0.00
70, -173620.00, -173843.08, -174375.81, -173756.05, -174357.45, -173921.53, -174503.77, -180015.75, 0.00, 0.00, 0.00
71, -173757.89, -173806.95, -174352.88, -173739.36, -174323.64, -173925.64, -174480.59, -179992.63, 0.00, 0.00, 0.00
72, -173942.16, -173785.34, -174346.03, -173775.55, -174307.55, -173935.70, -174476.64, -179990.08, 0.00, 0.00, 0.00
73, -174136.00, -173770.88, -174347.31, -173774.09, -174299.88, -173926.67, -174480.11, -179997.41, 0.00, 0.00, 0.00
74, -174381.64, -173732.75, -174321.83, -173739.50, -174263.48, -173919.08, -174454.59, -179972.75, 0.00, 0.00, 0.00
75, -174738.91, -173702.63, -174305.02, -173752.06, -174235.86, -173907.50, -174437.41, -179956.28, 0.00, 0.00, 0.00
76, -174786.17, -173698.17, -174315.89, -173778.81, -174237.70, -173931.84, -174449.69, -179971.34, 0.00, 0.00, 0.00
77, -174770.14, -173701.97, -174335.89, -173786.69, -174248.89, -173947.11, -174472.17, -179999.53, -0.29, -0.31, 0.88
78, -174731.52, -173683.13, -174331.17, -173770.13, -174233.03, -173926.78, -174467.63, -179998.09, 0.00, 0.00, 0.00
79, -174690.14, -173662.44, -174323.64, -173753.17, -174214.70, -173906.59, -174459.66, -179991.28, 0.00, 0.00, 0.00
80, -174662.02, -173654.98, -174330.86, -173751.84, -174212.34, -173922.09, -174468.59, -180003.16, 0.00, 0.00, 0.00
81, -174646.16, -173660.73, -174352.30, -173761.66, -174225.38, -173939.13, -174493.33, -180033.53, 0.00, 0.00, 0.00
82, -174611.00, -173603.17, -174351.45, -173750.39, -174211.38, -173924.33, -174492.48, -180036.64, 0.00, 0.00, 0.00
83, -174554.73, -173373.78, -174327.98, -173740.47, -174098.88, -173921.28, -174468.41, -180012.47, 0.00, 0.00, 0.00
84, -174491.25, -173433.06, -174298.73, -173760.73, -174086.84, -173923.48, -174440.58, -179983.97, 0.00, 0.00, 0.00
85, -174442.78, -173629.95, -174286.25, -173747.06, -174287.30, -173921.23, -174430.45, -179976.83, 0.00, 0.00, 0.00
86, -174377.84, -173810.16, -174254.69, -173744.27, -174555.92, -173927.05, -174402.28, -179947.00, 0.00, 0.00, 0.00
87, -174310.56, -174118.19, -174219.89, -173745.67, -174641.64, -173926.11, -174384.97, -179908.98, -0.29, -0.31, 0.88
88, -174272.67, -174414.44, -174215.69, -173732.69, -174628.03, -173918.89, -174386.22, -179906.14, 0.00, 0.00, 0.00
89, -174259.53, -174441.70, -174237.00, -173742.86, -174640.13, -173925.16, -174411.13, -179935.02, 0.00, 0.00, 0.00
90, -174233.11, -174434.59, -174246.75, -173739.86, -174638.95, -173923.08, -174421.56, -179950.22, 0.00, 0.00, 0.00
91, -174184.70, -174404.00, -174231.02, -173746.05, -174611.42, -173922.38, -174404.27, -179934.48, 0.00, 0.00, 0.00
92, -174149.67, -174385.33, -174227.17, -173776.41, -174597.41, -173920.02, -174400.80, -179932.56, 0.00, 0.00, 0.00
93, -174132.72, -174386.78, -174245.09, -173785.03, -174605.67, -173946.61, -174420.56, -179957.08, 0.00, 0.00, 0.00
94, -174112.17, -174384.19, -174258.13, -173786.06, -174610.13, -173952.42, -174436.16, -179978.08, 0.00, 0.00, 0.00
95, -174070.13, -174359.30, -174248.47, -173763.94, -174588.52, -173930.05, -174426.09, -179968.89, 0.00, 0.00, 0.00
96, -174030.66, -174338.17, -174242.66, -173746.67, -174571.77, -173932.13, -174419.47, -179963.81, 0.00, 0.00, 0.00
97, -174012.48, -174337.63, -174257.53, -173749.94, -174577.22, -173938.50, -174436.34, -179986.13, -0.29, -0.31, 0.88
98, -173996.67, -174340.05, -174276.34, -173756.91, -174586.20, -173942.77, -174457.13, -180013.72, 0.00, 0.00, 0.00
99, -173889.59, -174316.98, -174267.72, -173740.70, -174566.67, -173930.89, -174447.80, -180006.44, 0.00, 0.00, 0.00
100, -173643.70, -174283.55, -174249.66, -173761.31, -174537.84, -173931.86, -174429.08, -179987.50, 0.00, 0.00, 0.00
101, -173741.31, -174262.63, -174244.30, -173773.31, -174522.89, -173939.34, -174424.61, -179984.98, 0.00, 0.00, 0.00
102, -173937.98, -174253.80, -174249.91, -173768.22, -174520.09, -173935.61, -174432.78, -179998.91, 0.00, 0.00, 0.00
103, -174108.02, -174217.00, -174226.17, -173741.02, -174486.58, -173933.72, -174410.77, -179977.27, 0.00, 0.00, 0.00
104, -174302.34, -174169.81, -174192.48, -173753.56, -174441.23, -173926.55, -174388.22, -179941.91, 0.00, 0.00, 0.00
105, -174695.84, -174150.66, -174189.06, -173763.70, -174427.16, -173919.56, -174389.94, -179939.92, 0.00, 0.00, 0.00
106, -174828.70, -174156.34, -174210.31, -173773.88, -174440.39, -173926.66, -174414.14, -179970.23, 0.00, 0.00, 0.00
107, -174793.14, -174140.63, -174209.83, -173760.72, -174429.50, -173933.09, -174413.83, -179973.42, -0.29, -0.31, 0.88
108, -174748.25, -174114.47, -174198.22, -173735.98, -174406.31, -173936.27, -174402.14, -179962.41, 0.00, 0.00, 0.00
109, -174718.58, -174104.66, -174203.45, -173729.27, -174402.09, -173927.91, -174409.25, -179971.39, 0.00, 0.00, 0.00
110, -174705.14, -174111.20, -174225.89, -173740.70, -174416.73, -173936.19, -174434.70, -180002.45, 0.00, 0.00, 0.00
111, -174673.89, -174099.39, -174228.78, -173743.59, -174410.72, -173937.67, -174438.58, -180010.59, 0.00, 0.00, 0.00
112, -174621.80, -174066.89, -174208.97, -173773.78, -174379.70, -173936.78, -174418.08, -179990.64, 0.00, 0.00, 0.00
113, -174586.23, -174050.48, -174207.59, -173781.16, -174367.55, -173947.45, -174417.25, -179991.08, 0.00, 0.00, 0.00
114, -174571.52, -174055.36, -174227.28, -173789.59, -174378.63, -173960.72, -174439.42, -180019.69, 0.00, 0.00, 0.00
115, -174547.98, -174051.06, -174238.30, -173788.72, -174380.41, -173955.80, -174451.67, -180036.72, 0.00, 0.00, 0.00
116, -174505.72, -174027.61, -174229.66, -173767.34, -174359.78, -173938.55, -174441.66, -180027.89, 0.00, 0.00, 0.00
117, -174470.61, -174009.91, -174227.02, -173753.78, -174346.89, -173949.81, -174439.28, -180026.95, -0.29, -0.31, 0.88
118, -174455.16, -174011.81, -174244.61, -173759.86, -174355.56, -173958.25, -174460.20, -180051.59, 0.00, 0.00, 0.00
119, -174435.89, -174012.30, -174259.84, -173763.03, -174362.17, -173958.23, -174478.05, -180075.33, 0.00, 0.00, 0.00
120, -174389.69, -173984.63, -174246.45, -173753.05, -174337.88, -173946.44, -174463.45, -180062.61, 0.00, 0.00, 0.00
121, -174345.56, -173958.09, -174234.91, -173790.64, -174315.30, -173956.72, -174451.20, -180050.92, 0.00, 0.00, 0.00
122, -174326.59, -173956.38, -174249.25, -173807.36, -174320.63, -173959.75, -174467.45, -180070.09, 0.00, 0.00, 0.00
123, -174311.84, -173960.98, -174268.23, -173814.58, -174331.91, -173965.75, -174489.53, -180098.77, 0.00, 0.00, 0.00
124, -174274.98, -173941.14, -174262.73, -173795.73, -174315.66, -173946.98, -174483.83, -180094.34, 0.00, 0.00, 0.00
125, -174236.09, -173918.22, -174254.75, -173775.02, -174296.70, -173949.73, -174474.97, -180086.14, 0.00, 0.00, 0.00
126, -174212.95, -173913.42, -174265.53, -173773.09, -174297.22, -173955.59, -174486.67, -180101.77, 0.00, 0.00, 0.00
127, -174200.19, -173919.36, -174286.83, -173783.22, -174309.94, -173962.41, -174511.63, -180133.50, -0.29, -0.31, 0.88
128, -174161.64, -173899.19, -174281.22, -173771.31, -174294.30, -173953.47, -174506.17, -180131.11, 0.00, 0.00, 0.00
129, -174113.41, -173870.23, -174266.47, -173790.81, -174267.72, -173952.56, -174490.03, -180114.91, 0.00, 0.00, 0.00
130, -174085.48, -173861.97, -174272.44, -173807.66, -174264.81, -173947.13, -174497.11, -180124.92, 0.00, 0.00, 0.00
131, -174074.23, -173869.67, -174295.75, -173820.33, -174279.72, -173956.33, -174523.75, -180156.97, 0.00, 0.00, 0.00
132, -174045.30, -173857.70, -174298.61, -173812.14, -174272.95, -173949.06, -174528.14, -180165.20, 0.00, 0.00, 0.00
133, -174002.88, -173831.81, -174286.63, -173788.03, -174250.42, -173952.47, -174515.75, -180153.91, 0.00, 0.00, 0.00
134, -173974.48, -173820.59, -174289.67, -173779.20, -174243.83, -173953.11, -174519.48, -180160.55, 0.00, 0.00, 0.00
135, -173865.86, -173825.84, -174310.63, -173788.23, -174256.08, -173959.69, -174543.27, -180190.58, 0.00, 0.00, 0.00
136, -173665.00, -173804.75, -174304.58, -173776.66, -174213.98, -173960.20, -174538.84, -180189.25, 0.00, 0.00, 0.00
137, -173761.05, -173748.83, -174262.53, -173784.73, -174075.38, -173962.53, -174495.25, -180142.89, 0.00, 0.00, 0.00
138, -173915.78, -173699.98, -174226.45, -173773.83, -174171.47, -173955.73, -174460.28, -180105.14, -0.29, -0.31, 0.89
139, -174090.67, -173657.63, -174211.86, -173752.11, -174406.13, -173957.52, -174448.47, -180095.06, 0.00, 0.00, 0.00
140, -174255.89, -173438.98, -174159.64, -173762.33, -174657.63, -173955.66, -174435.52, -180079.61, 0.00, 0.00, 0.00
141, -174461.11, -173346.73, -174011.14, -173764.67, -174634.31, -173955.78, -174416.94, -180019.80, 0.00, 0.00, 0.00
142, -174751.59, -173477.84, -174193.39, -173759.59, -174565.98, -173948.69, -174407.91, -179958.94, 0.00, 0.00, 0.00
143, -174740.92, -173650.97, -174588.48, -173780.03, -174525.23, -173950.70, -174407.38, -179930.52, 0.00, 0.00, 0.00
144, -174692.83, -173856.27, -174879.22, -173781.77, -174504.44, -173949.52, -174406.72, -179924.47, 0.00, 0.00, 0.00
145, -174630.50, -174200.77, -174868.94, -173765.34, -174465.06, -173944.88, -174407.14, -179895.53, 0.00, 0.00, 0.00
146, -174581.92, -174429.75, -174853.47, -173792.61, -174439.95, -173940.11, -174403.86, -179881.38, 0.00, 0.00, 0.00
147, -174557.94, -174436.16, -174865.61, -173799.77, -174442.38, -173965.72, -174417.77, -179898.95, 0.00, 0.00, 0.00
148, -174542.91, -174440.23, -174886.34, -173808.28, -174454.00, -173975.16, -174441.25, -179928.25, -0.29, -0.31, 0.89
149, -174505.20, -174420.63, -174880.31, -173790.08, -174438.69, -173953.20, -174435.72, -179925.33, 0.00, 0.00, 0.00
150, -174464.95, -174398.77, -174873.11, -173770.86, -174420.63, -173936.22, -174428.09, -179918.89, 0.00, 0.00, 0.00
151, -174437.55, -174390.61, -174880.89, -173767.81, -174417.61, -173958.91, -174437.72, -179932.14, 0.00, 0.00, 0.00
152, -174421.52, -174394.05, -174900.14, -173776.47, -174429.28, -173971.25, -174459.98, -179960.17, 0.00, 0.00, 0.00
153, -174384.61, -174377.16, -174896.88, -173762.67, -174416.52, -173954.70, -174457.34, -179961.02, 0.00, 0.00, 0.00
154, -174335.80, -174347.98, -174882.23, -173775.02, -174391.08, -173956.63, -174442.64, -179946.69, 0.00, 0.00, 0.00
155, -174303.92, -174335.38, -174884.42, -173807.36, -174383.97, -173964.14, -174445.84, -179952.95, 0.00, 0.00, 0.00
156, -174292.80, -174343.25, -174907.41, -173821.44, -174398.98, -173972.47, -174472.14, -179986.09, 0.00, 0.00, 0.00
157, -174262.39, -174331.36, -174910.75, -173811.89, -174392.50, -173961.41, -174475.66, -179994.25, 0.00, 0.00, 0.00
158, -174218.63, -174305.63, -174899.06, -173787.63, -174369.81, -173957.88, -174463.31, -179982.61, -0.29, -0.31, 0.88
159, -174187.52, -174292.19, -174900.92, -173777.77, -174360.97, -173959.53, -174466.00, -179987.84, 0.00, 0.00, 0.00
160, -174173.84, -174297.31, -174921.30, -173787.95, -174372.97, -173966.13, -174489.77, -180017.48, 0.00, 0.00, 0.00
161, -174148.00, -174289.78, -174928.59, -173784.22, -174371.52, -173961.25, -174498.41, -180031.00, 0.00, 0.00, 0.00
162, -174102.92, -174261.72, -174914.13, -173769.70, -174347.27, -173959.36, -174483.44, -180017.08, 0.00, 0.00, 0.00
163, -174065.67, -174241.81, -174910.17, -173808.64, -174331.86, -173955.73, -174479.44, -180014.28, 0.00, 0.00, 0.00
164, -174050.64, -174246.86, -174930.95, -173834.23, -174342.33, -173961.25, -174502.55, -180042.27, 0.00, 0.00, 0.00
165, -174029.69, -174245.09, -174943.67, -173835.23, -174346.59, -173961.20, -174517.63, -180062.92, 0.00, 0.00, 0.00
166, -173920.06, -174217.92, -174931.31, -173808.95, -174323.11, -173961.03, -174504.52, -180050.56, 0.00, 0.00, 0.00
167, -173681.34, -174190.25, -174918.20, -173783.48, -174299.61, -173962.97, -174491.84, -180038.89, 0.00, 0.00, 0.00
168, -173783.31, -174173.86, -174916.28, -173770.39, -174289.48, -173978.33, -174492.33, -180042.00, -0.29, -0.31, 0.88
169, -173975.48, -174159.28, -174915.45, -173770.53, -174280.88, -173969.00, -174494.52, -180049.38, 0.00, 0.00, 0.00
170, -174137.11, -174114.73, -174884.56, -173788.86, -174191.47, -173952.38, -174463.16, -180018.02, 0.00, 0.00, 0.00
171, -174312.00, -174062.50, -174847.52, -173778.64, -174092.34, -173962.92, -174429.30, -179977.42, 0.00, 0.00, 0.00
172, -174677.63, -174025.78, -174825.70, -173799.27, -174246.53, -173967.73, -174422.25, -179958.19, 0.00, 0.00, 0.00
173, -174837.66, -174012.17, -174826.55, -173798.27, -174542.52, -173964.66, -174427.33, -179966.27, 0.00, 0.00, 0.00
174, -174796.22, -173987.94, -174815.92, -173776.06, -174705.13, -173957.11, -174419.86, -179957.67, 0.00, 0.00, 0.00
175, -174748.19, -173960.20, -174801.88, -173778.69, -174686.80, -173959.75, -174417.63, -179943.94, 0.00, 0.00, 0.00
176, -174716.14, -173947.95, -174804.52, -173820.41, -174679.02, -173966.02, -174423.38, -179950.42, 0.00, 0.00, 0.00
177, -174702.38, -173954.81, -174825.89, -173836.02, -174691.28, -173974.39, -174447.53, -179981.00, 0.00, 0.00, 0.00
178, -174667.59, -173939.80, -174825.48, -173823.52, -174680.28, -173961.25, -174447.36, -179984.69, -0.30, -0.31, 0.88
179, -174623.95, -173914.41, -174814.53, -173799.58, -174658.14, -173966.70, -174436.45, -179973.27, 0.00, 0.00, 0.00
180, -174597.05, -173905.08, -174820.92, -173791.92, -174654.52, -173975.17, -174443.27, -179982.81, 0.00, 0.00, 0.00
181, -174586.20, -173912.80, -174844.75, -173801.97, -174669.20, -173984.16, -174468.30, -180014.81, 0.00, 0.00, 0.00
182, -174556.97, -173902.22, -174848.80, -173793.17, -174663.16, -173973.77, -174473.83, -180024.39, 0.00, 0.00, 0.00
183, -174512.72, -173876.42, -174836.56, -173772.83, -174639.61, -173963.48, -174460.55, -180011.59, 0.00, 0.00, 0.00
184, -174475.81, -173857.20, -174831.47, -173805.50, -174624.66, -173965.39, -174456.44, -180009.00, 0.00, 0.00, 0.00
185, -174460.30, -173860.56, -174850.50, -173841.67, -174634.83, -173969.70, -174478.06, -180035.55, 0.00, 0.00, 0.00
186, -174435.94, -173854.92, -174859.95, -173838.52, -174634.17, -173967.23, -174488.73, -180050.66, 0.00, 0.00, 0.00
187, -174390.89, -173828.64, -174847.39, -173812.92, -174610.39, -173969.39, -174475.52, -180038.36, 0.00, 0.00, 0.00
188, -174356.30, -173813.66, -174847.30, -173799.97, -174599.94, -173966.45, -174475.86, -180040.66, -0.30, -0.32, 0.88
189, -174340.50, -173817.69, -174866.66, -173807.06, -174609.55, -173971.09, -174498.09, -180066.78, 0.00, 0.00, 0.00
190, -174320.36, -173817.63, -174880.58, -173809.13, -174614.44, -173972.66, -174513.63, -180089.56, 0.00, 0.00, 0.00
191, -174275.70, -173792.19, -174868.53, -173784.38, -174592.58, -173975.56, -174501.09, -180078.55, 0.00, 0.00, 0.00
192, -174236.17, -173770.09, -174860.75, -173774.22, -174574.66, -173974.91, -174494.00, -180072.22, 0.00, 0.00, 0.00
193, -174213.83, -173767.08, -174872.31, -173829.06, -174576.59, -173972.47, -174507.22, -180090.22, 0.00, 0.00, 0.00
194, -174197.00, -173768.80, -174890.03, -173853.03, -174584.23, -173976.08, -174526.59, -180116.19, 0.00, 0.00, 0.00
195, -174155.91, -173745.88, -174881.47, -173831.17, -174565.38, -173974.53, -174518.17, -180108.42, 0.00, 0.00, 0.00
196, -174117.53, -173725.33, -174875.17, -173811.77, -174548.91, -173968.84, -174511.58, -180102.30, 0.00, 0.00, 0.00
197, -174096.30, -173722.72, -174887.73, -173811.63, -174552.83, -173966.92, -174525.67, -180120.45, 0.00, 0.00, 0.00
198, -174083.36, -173727.67, -174908.81, -173820.97, -174564.86, -173975.16, -174549.50, -180150.45, 0.00, 0.00, 0.00
199, -174045.66, -173708.16, -174902.55, -173803.45, -174548.14, -173975.27, -174543.98, -180147.28, -0.30, -0.31, 0.88
200, -174002.25, -173683.52, -174891.05, -173784.78, -174526.39, -173965.47, -174532.77, -180136.14, 0.00, 0.00, 0.00
201, -173922.31, -173633.06, -174892.88, -173818.14, -174518.77, -173983.41, -174536.66, -180141.70, 0.00, 0.00, 0.00
202, -173685.78, -173423.09, -174901.86, -173843.50, -174519.31, -173993.03, -174548.91, -180160.06, 0.00, 0.00, 0.00
203, -173716.05, -173454.81, -174879.23, -173810.33, -174485.56, -173984.97, -174525.67, -180138.89, 0.00, 0.00, 0.00
204, -173841.88, -173598.77, -174840.23, -173805.42, -174435.11, -173982.78, -174484.91, -180095.38, 0.00, 0.00, 0.00
205, -173982.08, -173758.70, -174817.69, -173814.41, -174403.09, -173978.47, -174463.83, -180073.22, 0.00, 0.00, 0.00
206, -174141.97, -173968.89, -174816.39, -173802.33, -174392.81, -173980.20, -174464.84, -180077.67, 0.00, 0.00, 0.00
207, -174310.81, -174336.02, -174797.31, -173787.94, -174363.58, -173974.63, -174452.39, -180062.20, 0.00, 0.00, 0.00
208, -174651.89, -174438.47, -174762.78, -173804.20, -174318.03, -173970.69, -174436.36, -180025.89, 0.00, 0.00, 0.00
209, -174843.47, -174420.94, -174759.34, -173802.48, -174304.55, -173965.61, -174436.81, -180024.78, -0.30, -0.31, 0.89
210, -174833.75, -174426.06, -174780.91, -173810.48, -174317.81, -173972.45, -174460.77, -180053.48, 0.00, 0.00, 0.00
211, -174811.16, -174420.84, -174791.63, -173808.86, -174319.61, -173972.73, -174472.61, -180071.39, 0.00, 0.00, 0.00
212, -174767.45, -174393.16, -174779.38, -173795.73, -174296.23, -173975.67, -174458.17, -180058.88, 0.00, 0.00, 0.00
213, -174729.03, -174373.48, -174774.23, -173828.58, -174280.14, -173965.72, -174452.94, -180055.39, 0.00, 0.00, 0.00
214, -174712.09, -174375.05, -174791.66, -173845.97, -174288.02, -173968.63, -174473.39, -180080.28, 0.00, 0.00, 0.00
215, -174692.78, -174373.73, -174806.81, -173848.86, -174294.81, -173972.67, -174490.58, -180103.09, 0.00, 0.00, 0.00
216, -174648.56, -174346.53, -174793.55, -173824.50, -174271.38, -173974.58, -174477.58, -180090.55, 0.00, 0.00, 0.00
217, -174609.34, -174326.38, -174788.09, -173805.39, -174255.33, -173965.25, -174471.77, -180086.14, 0.00, 0.00, 0.00
218, -174589.17, -174326.25, -174803.55, -173808.25, -174261.38, -173965.72, -174489.45, -180108.30, 0.00, 0.00, 0.00
219, -174573.17, -174330.56, -174823.17, -173816.03, -174271.81, -173973.03, -174511.50, -180137.11, -0.29, -0.31, 0.88
220, -174530.13, -174306.77, -174813.20, -173802.00, -174200.58, -173977.91, -174500.44, -180128.20, 0.00, 0.00, 0.00
221, -174471.81, -174266.73, -174787.27, -173818.77, -174120.39, -173986.36, -174474.05, -180101.09, 0.00, 0.00, 0.00
222, -174428.30, -174241.44, -174778.25, -173818.67, -174301.00, -173972.47, -174466.11, -180095.48, 0.00, 0.00, 0.00
223, -174400.73, -174232.94, -174785.06, -173813.23, -174612.25, -173972.58, -174475.63, -180111.17, 0.00, 0.00, 0.00
224, -174356.94, -174208.19, -174774.83, -173795.78, -174731.61, -173984.20, -174464.20, -180103.00, 0.00, 0.00, 0.00
225, -174308.86, -174177.42, -174758.05, -173818.69, -174706.58, -173988.08, -174446.91, -180086.25, 0.00, 0.00, 0.00
226, -174281.59, -174167.56, -174761.95, -173839.41, -174701.31, -173992.39, -174453.48, -180095.36, 0.00, 0.00, 0.00
227, -174272.28, -174175.89, -174784.78, -173850.39, -174715.78, -174001.48, -174481.20, -180128.09, 0.00, 0.00, 0.00
228, -174245.13, -174163.92, -174789.11, -173841.06, -174708.81, -173990.80, -174485.00, -180135.52, 0.00, 0.00, 0.00
229, -174203.23, -174138.84, -174778.72, -173816.70, -174686.08, -173989.61, -174472.34, -180124.00, -0.30, -0.31, 0.88
230, -174173.66, -174126.56, -174781.84, -173807.03, -174678.75, -173991.05, -174476.64, -180130.48, 0.00, 0.00, 0.00
231, -174162.22, -174132.83, -174804.56, -173817.80, -174692.28, -173999.77, -174502.48, -180161.45, 0.00, 0.00, 0.00
232, -174135.69, -174123.91, -174809.95, -173813.02, -174687.97, -173993.91, -174509.20, -180172.25, 0.00, 0.00, 0.00
233, -174086.98, -174094.13, -174793.70, -173813.44, -174661.00, -173993.95, -174491.61, -180156.58, 0.00, 0.00, 0.00
234, -174049.97, -174075.17, -174789.77, -173847.13, -174646.22, -173992.67, -174488.55, -180154.73, 0.00, 0.00, 0.00
235, -174036.78, -174081.13, -174810.89, -173860.56, -174657.91, -173998.27, -174512.45, -180183.86, 0.00, 0.00, 0.00
236, -173961.92, -174078.17, -174824.13, -173860.89, -174661.39, -173998.67, -174526.84, -180204.34, 0.00, 0.00, 0.00
237, -173710.39, -174045.14, -174805.19, -173829.72, -174631.36, -173991.92, -174506.95, -180184.14, 0.00, 0.00, 0.00
238, -173776.81, -174010.88, -174784.64, -173802.36, -174601.73, -173993.44, -174486.88, -180164.22, 0.00, 0.00, 0.00
239, -173962.13, -173990.91, -174779.03, -173839.88, -174588.28, -174009.83, -174483.75, -180163.97, -0.29, -0.31, 0.88
240, -174150.06, -173973.98, -174775.80, -173859.34, -174576.48, -174004.66, -174482.50, -180167.59, 0.00, 0.00, 0.00
241, -174333.56, -173933.83, -174748.95, -173821.59, -174539.02, -173993.70, -174460.56, -180141.02, 0.00, 0.00, 0.00
242, -174697.03, -173897.48, -174727.25, -173816.69, -174505.73, -173989.45, -174450.53, -180117.39, 0.00, 0.00, 0.00
243, -174872.98, -173890.06, -174735.06, -173853.58, -174503.48, -174002.48, -174461.14, -180129.81, 0.00, 0.00, 0.00
244, -174859.53, -173895.81, -174756.28, -173865.41, -174515.98, -174009.75, -174485.25, -180159.77, 0.00, 0.00, 0.00
245, -174819.48, -173875.42, -174750.89, -173847.02, -174500.42, -173996.88, -174479.03, -180156.50, 0.00, 0.00, 0.00
246, -174776.64, -173851.89, -174741.11, -173825.36, -174479.98, -173999.42, -174469.08, -180147.55, 0.00, 0.00, 0.00
247, -174752.17, -173847.75, -174751.44, -173822.30, -174479.59, -173998.52, -174481.02, -180162.14, 0.00, 0.00, 0.00
248, -174738.41, -173853.41, -174771.95, -173831.05, -174491.80, -174005.08, -174504.91, -180192.41, 0.00, 0.00, 0.00
249, -174701.55, -173836.78, -174769.53, -173816.81, -174478.94, -173995.72, -174501.30, -180193.81, -0.29, -0.31, 0.88
250, -174655.09, -173808.81, -174754.72, -173825.52, -174453.53, -173997.86, -174484.86, -180178.91, 0.00, 0.00, 0.00
251, -174623.94, -173796.31, -174755.61, -173859.33, -174446.06, -174011.66, -174488.08, -180184.73, 0.00, 0.00, 0.00
252, -174613.36, -173804.00, -174779.50, -173873.63, -174461.27, -174023.69, -174515.27, -180218.47, 0.00, 0.00, 0.00
253, -174584.03, -173792.34, -174783.22, -173864.31, -174454.36, -174012.39, -174519.64, -180226.31, 0.00, 0.00, 0.00
254, -174540.28, -173767.58, -174772.23, -173840.44, -174432.61, -174002.33, -174507.80, -180214.58, 0.00, 0.00, 0.00
255, -174507.86, -173754.31, -174773.80, -173830.20, -174424.38, -174007.19, -174510.59, -180219.14, 0.00, 0.00, 0.00
0, -174493.84, -173758.92, -174794.28, -173839.02, -174435.98, -174014.25, -174533.23, -180248.27, 0.00, 0.00, 0.00
1, -174469.33, -173751.88, -174802.53, -173834.52, -174434.27, -174009.31, -174542.23, -180262.86, 0.00, 0.00, 0.00
2, -174422.77, -173637.27, -174787.97, -173817.39, -174408.33, -174008.95, -174527.09, -180247.72, 0.00, 0.00, 0.00
3, -174375.81, -173451.66, -174773.72, -173846.75, -174384.42, -174000.75, -174513.88, -180234.63, 0.00, 0.00, 0.00
4, -174347.98, -173611.48, -174779.89, -173859.50, -174380.97, -173993.06, -174521.78, -180246.03, -0.30, -0.31, 0.88
5, -174311.28, -173819.61, -174776.80, -173846.97, -174367.92, -174002.72, -174519.86, -180248.47, 0.00, 0.00, 0.00
6, -174248.05, -174060.69, -174745.28, -173827.70, -174325.66, -174008.13, -174487.69, -180216.13, 0.00, 0.00, 0.00
7, -174196.80, -174432.38, -174727.06, -173863.91, -174297.02, -174004.14, -174469.80, -180198.11, 0.00, 0.00, 0.00
8, -174176.25, -174515.39, -174740.70, -173877.72, -174302.31, -174004.44, -174485.84, -180218.22, 0.00, 0.00, 0.00
9, -174158.80, -174515.47, -174758.14, -173882.84, -174310.14, -174007.36, -174506.02, -180243.33, 0.00, 0.00, 0.00
10, -174116.89, -174491.75, -174748.75, -173861.23, -174290.73, -173998.73, -174496.64, -180234.98, 0.00, 0.00, 0.00
11, -174077.77, -174471.36, -174742.64, -173842.09, -174274.38, -173989.59, -174489.83, -180230.14, 0.00, 0.00, 0.00
12, -174059.59, -174470.61, -174757.88, -173844.00, -174279.31, -173989.22, -174506.41, -180251.33, 0.00, 0.00, 0.00
13, -174036.08, -174475.14, -174778.88, -173852.58, -174286.53, -173996.83, -174529.70, -180281.61, 0.00, 0.00, 0.00
14, -173809.44, -174444.50, -174763.45, -173838.67, -174172.75, -174008.55, -174513.98, -180267.30, -0.29, -0.30, 0.89
15, -173699.73, -174385.88, -174719.05, -173843.06, -174164.08, -174014.98, -174479.91, -180218.13, 0.00, 0.00, 0.00
16, -173850.00, -174340.25, -174687.69, -173818.17, -174344.52, -174008.45, -174476.23, -180188.22, 0.00, 0.00, 0.00
17, -174031.25, -174315.97, -174677.48, -173810.27, -174636.98, -174001.73, -174477.52, -180184.94, 0.00, 0.00, 0.00
18, -174196.14, -174274.02, -174649.42, -173831.56, -174731.09, -174008.30, -174466.92, -180157.16, 0.00, 0.00, 0.00
19, -174399.45, -174226.39, -174615.89, -173821.89, -174687.86, -174002.56, -174465.97, -180120.47, 0.00, 0.00, 0.00
20, -174783.64, -174201.13, -174606.34, -173854.75, -174667.67, -174011.16, -174474.22, -180111.67, 0.00, 0.00, 0.00
21, -174893.39, -174206.31, -174627.52, -173874.80, -174678.94, -174021.31, -174498.41, -180141.53, 0.00, 0.00, 0.00
22, -174862.50, -174196.02, -174631.02, -173866.55, -174673.09, -174013.67, -174503.66, -180151.02, 0.00, 0.00, 0.00
23, -174816.47, -174169.44, -174619.41, -173840.55, -174648.50, -174009.38, -174490.16, -180137.19, 0.00, 0.00, 0.00
24, -174782.25, -174156.19, -174619.78, -173828.53, -174638.47, -174002.00, -174491.69, -180140.28, -0.29, -0.31, 0.89
25, -174767.92, -174162.48, -174640.59, -173837.95, -174651.03, -174009.48, -174515.80, -180170.19, 0.00, 0.00, 0.00
26, -174741.69, -174156.27, -174649.97, -173834.97, -174650.41, -174008.23, -174526.08, -180185.70, 0.00, 0.00, 0.00
27, -174692.44, -174126.81, -174634.42, -173834.58, -174624.50, -174011.45, -174509.81, -180169.89, 0.00, 0.00, 0.00
28, -174654.67, -174108.55, -174631.45, -173868.78, -174610.72, -174005.02, -174506.41, -180168.16, 0.00, 0.00, 0.00
29, -174640.70, -174111.83, -174651.25, -173881.20, -174621.20, -174009.98, -174528.03, -180196.00, 0.00, 0.00, 0.00
30, -174621.52, -174110.36, -174664.73, -173883.20, -174625.86, -174013.13, -174544.08, -180218.00, 0.00, 0.00, 0.00
31, -174576.75, -174083.73, -174652.25, -173858.09, -174602.80, -174015.91, -174530.97, -180206.50, 0.00, 0.00, 0.00
32, -174536.19, -174063.78, -174646.09, -173839.22, -174585.67, -174008.97, -174524.92, -180201.33, 0.00, 0.00, 0.00
33, -174515.78, -174064.19, -174662.42, -173842.67, -174591.50, -174009.48, -174542.39, -180223.73, 0.00, 0.00, 0.00
34, -174499.03, -174066.97, -174679.80, -173848.48, -174601.34, -174018.67, -174563.00, -180250.78, -0.29, -0.31, 0.89
35, -174457.39, -174042.20, -174669.67, -173832.17, -174580.80, -174024.16, -174552.95, -180241.47, 0.00, 0.00, 0.00
36, -174414.59, -174018.89, -174660.58, -173858.09, -174560.17, -174011.61, -174543.38, -180231.61, 0.00, 0.00, 0.00
37, -174390.31, -174013.67, -174670.66, -173878.27, -174560.50, -174026.41, -174554.58, -180247.56, 0.00, 0.00, 0.00
38, -174375.86, -174018.14, -174690.33, -173886.66, -174572.02, -174040.09, -174577.98, -180277.56, 0.00, 0.00, 0.00
39, -174339.59, -173999.63, -174686.00, -173869.94, -174557.75, -174023.81, -174573.41, -180276.22, 0.00, 0.00, 0.00
40, -174296.23, -173975.00, -174674.89, -173845.58, -174535.52, -174026.52, -174561.11, -180264.78, 0.00, 0.00, 0.00
41, -174270.53, -173967.75, -174681.48, -173840.00, -174532.78, -174030.98, -174569.28, -180275.39, 0.00, 0.00, 0.00
42, -174259.09, -173974.48, -174704.17, -173851.28, -174546.64, -174039.75, -174594.30, -180306.64, 0.00, 0.00, 0.00
43, -174227.02, -173960.56, -174705.63, -173840.16, -174537.86, -174027.80, -174595.80, -180311.88, 0.00, 0.00, 0.00
44, -174182.42, -173934.14, -174693.63, -173838.92, -174515.13, -174024.78, -174582.89, -180300.42, -0.29, -0.31, 0.89
45, -174148.97, -173920.30, -174694.41, -173880.05, -174505.61, -174023.88, -174584.42, -180304.19, 0.00, 0.00, 0.00
46, -174137.09, -173926.70, -174716.03, -173897.48, -174518.86, -174031.59, -174609.08, -180335.13, 0.00, 0.00, 0.00
47, -174108.92, -173916.55, -174720.83, -173889.84, -174513.52, -174030.44, -174614.80, -180344.95, 0.00, 0.00, 0.00
48, -174051.89, -173888.25, -174705.28, -173861.83, -174488.13, -174036.48, -174599.42, -180329.22, 0.00, 0.00, 0.00
49, -173839.22, -173871.31, -174702.61, -173846.47, -174475.83, -174026.36, -174597.53, -180329.67, 0.00, 0.00, 0.00
50, -173783.13, -173864.98, -174711.27, -173843.06, -174474.97, -174020.44, -174608.52, -180345.02, 0.00, 0.00, 0.00
51, -173959.47, -173843.13, -174704.41, -173841.84, -174457.30, -174024.95, -174601.98, -180343.13, 0.00, 0.00, 0.00
52, -174120.22, -173796.72, -174671.92, -173857.56, -174414.20, -174026.41, -174568.02, -180308.36, 0.00, 0.00, 0.00
53, -174305.95, -173762.48, -174651.25, -173841.63, -174383.70, -174027.39, -174548.05, -180287.22, 0.00, 0.00, 0.00
54, -174681.81, -173748.89, -174651.88, -173874.34, -174375.72, -174039.28, -174551.73, -180293.02, 0.00, 0.00, 0.00
55, -174900.30, -173723.31, -174662.22, -173900.97, -174377.55, -174038.36, -174564.33, -180310.88, -0.29, -0.31, 0.89
56, -174856.19, -173505.56, -174645.38, -173871.23, -174350.03, -174027.48, -174547.34, -180294.80, 0.00, 0.00, 0.00
57, -174801.39, -173510.38, -174625.44, -173841.09, -174319.28, -174018.88, -174526.86, -180274.23, 0.00, 0.00, 0.00
58, -174760.14, -173712.81, -174619.58, -173866.92, -174303.13, -174030.09, -174522.09, -180272.27, 0.00, 0.00, 0.00
59, -174726.38, -173930.41, -174620.20, -173881.83, -174260.16, -174032.16, -174525.34, -180280.25, 0.00, 0.00, 0.00
60, -174664.06, -174268.97, -174590.61, -173847.81, -174146.48, -174030.41, -174501.16, -180250.14, 0.00, 0.00, 0.00
61, -174594.44, -174488.08, -174553.55, -173853.03, -174260.14, -174029.83, -174487.25, -180209.95, 0.00, 0.00, 0.00
62, -174549.34, -174473.52, -174543.38, -173851.23, -174510.84, -174030.94, -174495.97, -180201.50, 0.00, 0.00, 0.00
63, -174526.64, -174469.27, -174556.41, -173851.55, -174774.03, -174044.42, -174516.88, -180221.73, 0.00, 0.00, 0.00
64, -174486.56, -174448.66, -174550.28, -173846.44, -174787.97, -174032.38, -174511.16, -180218.67, 0.00, 0.00, 0.00
65, -174438.08, -174417.66, -174533.02, -173879.22, -174760.38, -174040.02, -174494.63, -180201.41, -0.29, -0.31, 0.89
66, -174411.69, -174408.73, -174538.28, -173889.55, -174757.31, -174039.02, -174501.66, -180211.63, 0.00, 0.00, 0.00
67, -174400.47, -174415.58, -174561.06, -173900.52, -174771.39, -174047.80, -174528.03, -180244.11, 0.00, 0.00, 0.00
68, -174371.20, -174403.38, -174564.64, -173890.94, -174764.39, -174036.75, -174531.59, -180252.94, 0.00, 0.00, 0.00
69, -174329.52, -174378.61, -174554.53, -173867.53, -174742.59, -174028.80, -174519.95, -180242.92, 0.00, 0.00, 0.00
70, -174299.61, -174366.13, -174557.80, -173858.09, -174734.80, -174032.28, -174524.78, -180248.97, 0.00, 0.00, 0.00
71, -174287.55, -174372.03, -174579.52, -173867.42, -174748.22, -174039.86, -174549.39, -180278.86, 0.00, 0.00, 0.00
72, -174259.61, -174362.73, -174585.02, -173860.53, -174743.52, -174034.52, -174555.73, -180289.98, 0.00, 0.00, 0.00
73, -174212.73, -174333.67, -174570.81, -173852.73, -174717.59, -174031.50, -174540.52, -180275.19, 0.00, 0.00, 0.00
74, -174174.59, -174313.53, -174565.55, -173892.45, -174702.66, -174037.14, -174536.70, -180272.69, 0.00, 0.00, 0.00
75, -174157.70, -174315.03, -174582.70, -173908.13, -174711.95, -174063.58, -174557.33, -180298.50, -0.30, -0.31, 0.89
76, -174136.94, -174312.48, -174596.67, -173908.55, -174715.17, -174062.77, -174571.36, -180319.27, 0.00, 0.00, 0.00
77, -174095.16, -174289.70, -174588.05, -173885.28, -174694.23, -174037.03, -174560.33, -180310.44, 0.00, 0.00, 0.00
78, -173987.20, -174272.28, -174584.64, -173868.78, -174681.77, -174031.09, -174557.42, -180308.92, 0.00, 0.00, 0.00
79, -173770.13, -174262.73, -174590.25, -173862.97, -174678.63, -174058.44, -174565.84, -180320.48, 0.00, 0.00, 0.00
80, -173880.73, -174246.80, -174589.73, -173855.69, -174668.13, -174051.16, -174566.48, -180325.78, 0.00, 0.00, 0.00
81, -174042.67, -174202.53, -174558.63, -173866.75, -174626.00, -174040.78, -174535.09, -180293.19, 0.00, 0.00, 0.00
82, -174211.92, -174163.98, -174533.95, -173862.30, -174590.13, -174041.78, -174509.83, -180266.09, 0.00, 0.00, 0.00
83, -174478.83, -174146.84, -174531.88, -173848.00, -174578.45, -174053.98, -174508.75, -180267.86, 0.00, 0.00, 0.00
84, -174866.09, -174145.59, -174546.53, -173850.81, -174584.11, -174055.69, -174525.30, -180290.23, 0.00, 0.00, 0.00
85, -174895.52, -174122.00, -174538.19, -173852.16, -174564.61, -174042.91, -174516.84, -180283.64, -0.30, -0.31, 0.88
86, -174847.55, -174094.47, -174525.59, -173880.50, -174540.11, -174040.09, -174503.64, -180271.22, 0.00, 0.00, 0.00
87, -174821.34, -174089.59, -174535.58, -173887.14, -174540.09, -174037.77, -174514.53, -180286.39, 0.00, 0.00, 0.00
88, -174806.27, -174094.95, -174555.56, -173896.70, -174553.06, -174044.36, -174537.92, -180315.41, 0.00, 0.00, 0.00
89, -174769.20, -174077.03, -174552.83, -173881.44, -174540.31, -174040.48, -174535.09, -180315.25, 0.00, 0.00, 0.00
90, -174723.84, -174051.06, -174541.03, -173857.56, -174516.95, -174047.47, -174522.33, -180303.78, 0.00, 0.00, 0.00
91, -174696.89, -174043.63, -174548.34, -173853.11, -174514.30, -174042.80, -174530.39, -180315.03, 0.00, 0.00, 0.00
92, -174686.52, -174051.95, -174573.31, -173865.52, -174530.64, -174052.83, -174557.66, -180347.70, 0.00, 0.00, 0.00
93, -174655.59, -174040.27, -174575.44, -173860.28, -174522.80, -174047.47, -174560.88, -180354.91, 0.00, 0.00, 0.00
94, -174605.50, -174008.13, -174557.11, -173883.73, -174493.17, -174055.00, -174542.17, -180336.50, 0.00, 0.00, 0.00
95, -174572.95, -173993.17, -174556.48, -173904.19, -174483.30, -174051.75, -174543.25, -180339.67, -0.30, -0.31, 0.89
96, -174559.83, -173999.05, -174577.72, -173913.64, -174496.05, -174058.13, -174566.30, -180368.69, 0.00, 0.00, 0.00
97, -174534.03, -173992.25, -174585.88, -173909.19, -174494.56, -174052.45, -174575.23, -180382.48, 0.00, 0.00, 0.00
98, -174488.38, -173965.56, -174573.28, -173883.36, -174470.53, -174053.30, -174561.47, -180369.94, 0.00, 0.00, 0.00
99, -174453.06, -173949.58, -174572.64, -173869.36, -174459.30, -174055.58, -174560.19, -180371.22, 0.00, 0.00, 0.00
100, -174439.56, -173954.77, -174593.77, -173878.42, -174471.94, -174063.02, -174584.42, -180400.03, 0.00, 0.00, 0.00
101, -174420.05, -173953.78, -174607.28, -173879.42, -174475.70, -174063.33, -174599.55, -180421.31, 0.00, 0.00, 0.00
102, -174374.77, -173927.14, -174593.73, -173870.95, -174451.41, -174059.06, -174585.36, -180408.36, 0.00, 0.00, 0.00
103, -174333.45, -173903.88, -174584.53, -173910.45, -174431.48, -174049.88, -174576.75, -180399.88, 0.00, 0.00, 0.00
105, -174297.25, -173904.52, -174615.80, -173929.44, -174445.88, -174053.98, -174612.84, -180447.22, -0.30, -0.31, 0.88
106, -174254.69, -173880.63, -174606.48, -173906.59, -174425.00, -174055.78, -174601.66, -180438.31, 0.00, 0.00, 0.00
107, -174215.34, -173859.31, -174599.58, -173886.94, -174407.80, -174054.86, -174594.36, -180431.92, 0.00, 0.00, 0.00
108, -174197.89, -173858.66, -174614.64, -173889.81, -174413.36, -174054.75, -174611.08, -180453.03, 0.00, 0.00, 0.00
109, -174185.73, -173863.86, -174636.13, -173899.53, -174426.23, -174062.73, -174635.27, -180483.77, 0.00, 0.00, 0.00
110, -174147.70, -173844.20, -174630.11, -173883.25, -174410.30, -174062.17, -174628.97, -180480.03, 0.00, 0.00, 0.00
111, -174104.28, -173819.00, -174618.66, -173883.13, -174387.14, -174056.36, -174616.84, -180467.78, 0.00, 0.00, 0.00
112, -174073.56, -173807.31, -174621.03, -173928.03, -174380.41, -174065.45, -174621.48, -180474.42, 0.00, 0.00, 0.00
113, -173994.16, -173810.98, -174640.39, -173942.83, -174392.38, -174083.31, -174643.94, -180502.63, 0.00, 0.00, 0.00
114, -173759.61, -173745.78, -174630.98, -173920.80, -174364.81, -174065.48, -174634.73, -180497.27, 0.00, 0.00, 0.00
115, -173817.27, -173491.28, -174596.05, -173882.42, -174228.42, -174064.06, -174597.27, -180458.02, 0.00, 0.00, 0.00
116, -173944.38, -173513.20, -174558.61, -173891.22, -174246.89, -174064.31, -174559.77, -180419.25, -0.30, -0.31, 0.87
117, -174086.02, -173673.42, -174537.19, -173882.13, -174447.63, -174057.45, -174542.13, -180402.75, 0.00, 0.00, 0.00
118, -174212.38, -173816.17, -174497.56, -173875.98, -174705.61, -174062.70, -174525.44, -180364.94, 0.00, 0.00, 0.00
119, -174331.47, -173952.48, -174449.55, -173873.97, -174753.42, -174061.39, -174519.44, -180312.28, 0.00, 0.00, 0.00
120, -174588.06, -174242.17, -174419.53, -173896.59, -174713.66, -174057.88, -174517.08, -180281.59, 0.00, 0.00, 0.00
121, -174915.38, -174546.13, -174431.22, -173914.30, -174715.78, -174060.19, -174538.84, -180300.20, 0.00, 0.00, 0.00
122, -174924.48, -174562.69, -174440.36, -173910.69, -174716.09, -174058.61, -174548.98, -180315.58, 0.00, 0.00, 0.00
123, -174878.86, -174535.17, -174428.30, -173885.44, -174692.16, -174060.66, -174535.28, -180303.06, 0.00, 0.00, 0.00
124, -174844.06, -174519.39, -174427.78, -173871.86, -174680.59, -174056.47, -174535.38, -180305.06, 0.00, 0.00, 0.00
125, -174827.67, -174522.77, -174446.75, -173878.95, -174690.95, -174061.00, -174557.59, -180332.84, 0.00, 0.00, 0.00
126, -174806.89, -174520.63, -174461.47, -173880.94, -174695.44, -174061.56, -174573.78, -180354.66, -0.30, -0.31, 0.88
127, -174760.64, -174493.22, -174449.38, -173874.64, -174670.67, -174054.61, -174559.89, -180341.94, 0.00, 0.00, 0.00
128, -174715.58, -174468.14, -174438.58, -173906.44, -174649.80, -174051.31, -174548.61, -180332.08, 0.00, 0.00, 0.00
129, -174694.34, -174467.03, -174453.48, -173918.89, -174655.75, -174051.89, -174565.42, -180352.36, 0.00, 0.00, 0.00
130, -174677.52, -174469.38, -174471.34, -173925.73, -174664.70, -174059.22, -174585.80, -180379.16, 0.00, 0.00, 0.00
131, -174635.33, -174446.55, -174462.25, -173903.41, -174644.19, -174061.66, -174576.78, -180372.17, 0.00, 0.00, 0.00
132, -174596.48, -174427.33, -174457.28, -173883.84, -174629.14, -174055.84, -174570.30, -180367.89, 0.00, 0.00, 0.00
133, -174573.72, -174423.03, -174468.33, -173882.23, -174630.75, -174075.95, -174583.34, -180384.63, 0.00, 0.00, 0.00
134, -174558.83, -174427.11, -174489.05, -173890.98, -174643.00, -174089.50, -174606.84, -180414.94, 0.00, 0.00, 0.00
135, -174522.34, -174407.69, -174484.23, -173877.33, -174627.53, -174073.50, -174601.86, -180413.28, 0.00, 0.00, 0.00
136, -174474.50, -174378.00, -174468.77, -173901.34, -174600.63, -174068.30, -174585.05, -180396.41, -0.29, -0.31, 0.89
137, -174445.28, -174367.55, -174474.42, -173931.70, -174596.44, -174066.47, -174591.66, -180405.77, 0.00, 0.00, 0.00
138, -174432.63, -174373.97, -174496.95, -173942.98, -174610.48, -174074.89, -174617.75, -180438.05, 0.00, 0.00, 0.00
139, -174401.25, -174359.92, -174496.80, -173930.73, -174601.00, -174068.42, -174618.17, -180442.94, 0.00, 0.00, 0.00
140, -174358.08, -174335.08, -174486.30, -173906.42, -174578.72, -174074.22, -174606.19, -180431.67, 0.00, 0.00, 0.00
141, -174330.70, -174325.41, -174491.70, -173898.72, -174573.59, -174070.28, -174611.80, -180440.58, 0.00, 0.00, 0.00
142, -174320.75, -174331.89, -174514.64, -173909.33, -174588.52, -174078.42, -174637.69, -180472.34, 0.00, 0.00, 0.00
143, -174292.55, -174321.92, -174519.47, -173902.13, -174583.45, -174074.17, -174643.83, -180482.78, 0.00, 0.00, 0.00
144, -174243.05, -174291.34, -174502.44, -173896.52, -174555.55, -174074.63, -174625.95, -180465.61, 0.00, 0.00, 0.00
145, -174206.83, -174274.09, -174499.34, -173928.06, -174543.48, -174066.13, -174624.25, -180465.25, 0.00, 0.00, 0.00
146, -174192.23, -174279.47, -174520.20, -173941.25, -174555.50, -174071.16, -174647.98, -180493.81, -0.29, -0.31, 0.88
147, -174169.08, -174275.11, -174531.59, -173939.84, -174556.77, -174070.08, -174660.86, -180512.14, 0.00, 0.00, 0.00
148, -174125.72, -174248.92, -174520.11, -173915.39, -174534.44, -174078.48, -174648.44, -180500.77, 0.00, 0.00, 0.00
149, -174013.73, -174230.80, -174517.08, -173898.80, -174520.61, -174079.98, -174644.83, -180499.63, 0.00, 0.00, 0.00
150, -173807.53, -174225.73, -174527.31, -173897.11, -174521.94, -174075.17, -174657.13, -180517.02, 0.00, 0.00, 0.00
151, -173925.63, -174209.52, -174525.59, -173891.72, -174511.19, -174077.75, -174657.55, -180521.94, 0.00, 0.00, 0.00
152, -174083.45, -174161.41, -174489.58, -173908.75, -174464.72, -174080.00, -174621.91, -180483.63, 0.00, 0.00, 0.00
153, -174252.41, -174121.89, -174464.61, -173900.05, -174429.39, -174078.70, -174596.72, -180457.30, 0.00, 0.00, 0.00
154, -174521.72, -174106.81, -174464.69, -173887.27, -174420.09, -174070.02, -174598.17, -180461.42, 0.00, 0.00, 0.00
155, -174907.94, -174104.03, -174477.69, -173888.55, -174424.31, -174070.22, -174612.88, -180482.42, 0.00, 0.00, 0.00
156, -174936.30, -174079.92, -174467.67, -173895.83, -174402.97, -174071.56, -174601.86, -180474.22, -0.29, -0.31, 0.88
157, -174890.38, -174054.02, -174454.52, -173928.50, -174379.00, -174068.14, -174589.56, -180462.17, 0.00, 0.00, 0.00
158, -174863.45, -174047.94, -174462.98, -173931.19, -174378.27, -174090.84, -174600.25, -180475.28, 0.00, 0.00, 0.00
159, -174847.45, -174052.67, -174483.88, -173938.72, -174389.63, -174105.05, -174622.63, -180504.34, 0.00, 0.00, 0.00
160, -174809.33, -174034.13, -174480.03, -173922.97, -174375.14, -174084.88, -174617.91, -180504.20, 0.00, 0.00, 0.00
161, -174767.59, -174011.44, -174470.98, -173901.19, -174343.88, -174065.75, -174609.05, -180495.94, 0.00, 0.00, 0.00
162, -174733.66, -173997.16, -174470.95, -173890.78, -174246.13, -174079.66, -174610.25, -180498.63, 0.00, 0.00, 0.00
163, -174702.70, -173986.36, -174476.22, -173887.78, -174343.56, -174081.11, -174618.45, -180510.89, 0.00, 0.00, 0.00
164, -174648.19, -173950.48, -174454.59, -173907.23, -174578.27, -174084.13, -174598.08, -180492.08, 0.00, 0.00, 0.00
165, -174590.50, -173912.45, -174430.48, -173916.30, -174808.11, -174094.36, -174572.73, -180464.88, 0.00, 0.00, 0.00
166, -174559.00, -173901.75, -174432.34, -173907.61, -174836.41, -174096.14, -174575.97, -180469.66, -0.30, -0.30, 0.88
167, -174545.97, -173908.97, -174454.16, -173917.80, -174848.84, -174104.13, -174600.73, -180499.94, 0.00, 0.00, 0.00
168, -174517.44, -173899.05, -174460.14, -173910.78, -174845.05, -174094.58, -174606.88, -180512.17, 0.00, 0.00, 0.00
169, -174471.92, -173871.55, -174447.25, -173893.25, -174820.81, -174084.45, -174592.91, -180499.03, 0.00, 0.00, 0.00
170, -174432.67, -173852.72, -174442.28, -173931.97, -174805.14, -174085.38, -174588.31, -180495.84, 0.00, 0.00, 0.00
171, -174416.17, -173856.22, -174461.34, -173963.78, -174815.33, -174090.72, -174610.39, -180522.31, 0.00, 0.00, 0.00
172, -174394.50, -173854.36, -174474.30, -173963.94, -174819.05, -174093.17, -174625.39, -180543.34, 0.00, 0.00, 0.00
173, -174349.72, -173828.53, -174462.44, -173937.80, -174795.98, -174091.72, -174612.97, -180532.11, 0.00, 0.00, 0.00
174, -174314.00, -173811.39, -174459.81, -173922.06, -174782.09, -174084.23, -174610.48, -180530.63, 0.00, 0.00, 0.00
175, -174296.86, -173813.75, -174477.13, -173927.88, -174790.61, -174087.20, -174630.03, -180554.81, 0.00, 0.00, 0.00
176, -174277.44, -173799.72, -174492.39, -173930.92, -174796.53, -174092.03, -174646.63, -180577.70, 0.00, 0.00, 0.00
177, -174228.89, -173591.52, -174475.56, -173909.69, -174769.53, -174094.31, -174628.63, -180561.09, -0.30, -0.31, 0.88
178, -174170.20, -173554.30, -174450.33, -173926.77, -174733.13, -174089.66, -174603.16, -180535.28, 0.00, 0.00, 0.00
179, -174130.03, -173754.88, -174446.23, -173930.92, -174719.31, -174102.31, -174601.14, -180534.91, 0.00, 0.00, 0.00
180, -173985.23, -173965.61, -174451.27, -173923.25, -174714.66, -174105.58, -174608.16, -180546.80, 0.00, 0.00, 0.00
181, -173765.56, -174217.42, -174421.58, -173905.86, -174673.88, -174094.30, -174577.75, -180518.14, 0.00, 0.00, 0.00
182, -173872.89, -174539.22, -174387.16, -173923.75, -174628.77, -174090.64, -174552.50, -180481.30, 0.00, 0.00, 0.00
183, -174055.33, -174569.44, -174379.16, -173913.64, -174609.94, -174096.61, -174553.97, -180474.81, 0.00, 0.00, 0.00
184, -174250.03, -174557.28, -174383.08, -173907.00, -174604.94, -174106.16, -174561.28, -180485.77, 0.00, 0.00, 0.00
185, -174443.56, -174521.09, -174360.52, -173897.86, -174571.39, -174092.19, -174554.22, -180465.41, 0.00, 0.00, 0.00
186, -174806.28, -174478.53, -174332.53, -173916.25, -174531.83, -174079.94, -174545.30, -180434.77, 0.00, 0.00, 0.00
187, -174968.78, -174465.70, -174335.95, -173915.05, -174525.44, -174095.97, -174551.05, -180441.53, -0.30, -0.31, 0.88
188, -174958.63, -174472.34, -174359.38, -173926.55, -174540.52, -174115.59, -174577.44, -180473.98, 0.00, 0.00, 0.00
189, -174927.78, -174460.97, -174362.84, -173916.95, -174533.72, -174103.30, -174581.84, -180482.38, 0.00, 0.00, 0.00
190, -174883.27, -174435.47, -174351.77, -173893.53, -174511.73, -174091.36, -174569.83, -180470.81, 0.00, 0.00, 0.00
191, -174851.56, -174422.22, -174353.59, -173884.55, -174503.64, -174096.33, -174571.98, -180475.95, 0.00, 0.00, 0.00
192, -174837.59, -174427.55, -174374.20, -173893.44, -174515.95, -174103.45, -174595.19, -180504.55, 0.00, 0.00, 0.00
193, -174811.05, -174420.17, -174381.08, -173896.16, -174514.41, -174099.11, -174603.69, -180517.44, 0.00, 0.00, 0.00
194, -174762.19, -174389.27, -174364.44, -173921.16, -174486.52, -174092.55, -174585.53, -180499.53, 0.00, 0.00, 0.00
195, -174728.86, -174372.80, -174363.31, -173929.42, -174475.34, -174086.13, -174584.69, -180499.63, 0.00, 0.00, 0.00
196, -174717.34, -174378.77, -174385.95, -173939.02, -174487.25, -174093.22, -174609.55, -180529.72, 0.00, 0.00, 0.00
197, -174697.42, -174377.23, -174399.97, -173940.00, -174491.09, -174097.58, -174625.44, -180551.39, -0.30, -0.31, 0.88
198, -174653.31, -174351.63, -174386.69, -173915.44, -174467.98, -174095.30, -174611.64, -180539.55, 0.00, 0.00, 0.00
199, -174615.59, -174332.80, -174381.83, -173898.94, -174452.52, -174099.11, -174606.50, -180535.97, 0.00, 0.00, 0.00
200, -174597.14, -174332.45, -174396.78, -173906.11, -174458.67, -174109.38, -174624.39, -180557.81, 0.00, 0.00, 0.00
201, -174580.58, -174334.69, -174415.17, -173914.94, -174468.03, -174113.20, -174645.19, -180584.59, 0.00, 0.00, 0.00
202, -174536.94, -174309.09, -174403.44, -173913.31, -174445.80, -174104.02, -174633.30, -180574.84, 0.00, 0.00, 0.00
203, -174493.48, -174283.23, -174392.03, -173950.34, -174423.00, -174102.25, -174621.08, -180563.42, 0.00, 0.00, 0.00
204, -174475.91, -174282.73, -174406.56, -173962.77, -174429.13, -174103.72, -174636.67, -180584.08, 0.00, 0.00, 0.00
205, -174463.41, -174288.25, -174427.98, -173972.55, -174442.69, -174110.89, -174660.64, -180614.03, 0.00, 0.00, 0.00
206, -174423.16, -174267.88, -174422.30, -173953.81, -174426.19, -174102.58, -174654.53, -180610.16, 0.00, 0.00, 0.00
207, -174376.72, -174243.80, -174411.66, -173931.09, -174404.59, -174106.42, -174643.89, -180599.42, -0.30, -0.31, 0.88
208, -174349.91, -174238.45, -174420.06, -173928.73, -174403.22, -174102.94, -174653.53, -180611.92, 0.00, 0.00, 0.00
209, -174335.70, -174244.52, -174442.53, -173939.44, -174416.84, -174111.45, -174678.47, -180642.52, 0.00, 0.00, 0.00
210, -174301.16, -174227.78, -174441.39, -173925.69, -174403.03, -174103.23, -174677.30, -180645.30, 0.00, 0.00, 0.00
211, -174251.75, -174196.61, -174424.11, -173925.80, -174301.17, -174104.42, -174657.78, -180628.06, 0.00, 0.00, 0.00
212, -174206.05, -174170.31, -174412.63, -173949.88, -174290.92, -174107.59, -174646.13, -180618.45, 0.00, 0.00, 0.00
213, -174176.56, -174159.47, -174417.27, -173947.45, -174531.06, -174103.13, -174653.91, -180629.48, 0.00, 0.00, 0.00
214, -174072.19, -174137.11, -174408.63, -173928.63, -174810.28, -174108.69, -174647.06, -180626.20, 0.00, 0.00, 0.00
215, -173821.31, -174097.84, -174382.92, -173920.75, -174834.13, -174110.03, -174620.52, -180599.31, 0.00, 0.00, 0.00
216, -173907.67, -174064.52, -174364.66, -173940.53, -174804.11, -174108.59, -174601.61, -180580.00, 0.00, 0.00, 0.00
217, -174106.94, -174054.17, -174369.44, -173938.30, -174799.52, -174111.95, -174609.09, -180591.56, -0.30, -0.31, 0.88
218, -174293.83, -174032.11, -174349.33, -173921.13, -174783.19, -174109.22, -174604.77, -180590.78, 0.00, 0.00, 0.00
219, -174469.47, -173977.75, -174194.63, -173912.72, -174730.67, -174108.44, -174575.77, -180547.27, 0.00, 0.00, 0.00
220, -174818.70, -173921.20, -174307.92, -173929.52, -174676.47, -174103.23, -174565.05, -180502.52, 0.00, 0.00, 0.00
221, -174956.58, -173897.66, -174732.34, -173915.61, -174657.42, -174105.94, -174573.88, -180496.61, 0.00, 0.00, 0.00
222, -174930.45, -173889.33, -175045.25, -173912.81, -174654.92, -174102.89, -174582.52, -180509.53, 0.00, 0.00, 0.00
223, -174880.95, -173858.77, -175047.70, -173928.89, -174628.14, -174100.09, -174568.28, -180494.42, 0.00, 0.00, 0.00
224, -174836.72, -173834.86, -175035.97, -173951.48, -174607.50, -174100.69, -174563.97, -180485.34, 0.00, 0.00, 0.00
225, -174814.94, -173833.88, -175048.55, -173956.25, -174612.06, -174117.05, -174579.66, -180504.77, 0.00, 0.00, 0.00
226, -174797.66, -173835.80, -175067.58, -173964.98, -174622.13, -174121.89, -174600.89, -180532.17, 0.00, 0.00, 0.00
227, -174755.28, -173692.88, -175057.30, -173948.02, -174601.42, -174110.89, -174590.94, -180525.44, -0.29, -0.30, 0.88
228, -174704.94, -173548.48, -175039.88, -173922.53, -174573.52, -174107.66, -174573.95, -180508.56, 0.00, 0.00, 0.00
229, -174667.02, -173724.70, -175037.41, -173908.88, -174562.11, -174092.95, -174573.22, -180509.94, 0.00, 0.00, 0.00
230, -174634.58, -173939.19, -175040.73, -173913.27, -174557.27, -174099.39, -174581.33, -180521.72, 0.00, 0.00, 0.00
231, -174572.22, -174208.27, -175011.61, -173933.80, -174517.55, -174107.31, -174572.97, -180493.14, 0.00, 0.00, 0.00
232, -174518.22, -174555.36, -174989.81, -173918.52, -174484.86, -174095.73, -174571.98, -180469.75, 0.00, 0.00, 0.00
233, -174490.72, -174601.61, -174996.31, -173912.97, -174481.75, -174106.09, -174581.77, -180480.58, 0.00, 0.00, 0.00
234, -174475.19, -174605.72, -175017.19, -173921.88, -174494.66, -174130.05, -174605.94, -180511.03, 0.00, 0.00, 0.00
235, -174439.72, -174589.52, -175016.48, -173924.13, -174483.45, -174117.13, -174604.98, -180514.61, 0.00, 0.00, 0.00
236, -174392.81, -174560.97, -175001.34, -173953.55, -174458.53, -174110.86, -174590.00, -180499.61, 0.00, 0.00, 0.00
237, -174363.88, -174549.81, -175005.30, -173957.34, -174453.66, -174107.97, -174595.28, -180507.08, 0.00, 0.00, 0.00
238, -174352.55, -174557.16, -175027.94, -173968.09, -174468.39, -174117.33, -174620.88, -180538.14, -0.30, -0.30, 0.88
239, -174324.80, -174547.92, -175033.08, -173960.53, -174463.55, -174111.86, -174626.81, -180548.53, 0.00, 0.00, 0.00
240, -174277.17, -174519.38, -175018.72, -173933.25, -174437.72, -174114.66, -174611.36, -180533.05, 0.00, 0.00, 0.00
241, -174243.22, -174503.58, -175019.16, -173920.80, -174428.88, -174113.27, -174612.02, -180535.86, 0.00, 0.00, 0.00
242, -174228.73, -174508.00, -175039.72, -173929.06, -174441.59, -174120.22, -174635.52, -180564.52, 0.00, 0.00, 0.00
243, -174203.59, -174503.39, -175049.48, -173928.13, -174442.44, -174116.78, -174647.34, -180581.95, 0.00, 0.00, 0.00
244, -174144.05, -174474.92, -175034.73, -173940.17, -174417.05, -174111.45, -174631.78, -180568.20, 0.00, 0.00, 0.00
245, -173918.50, -174450.98, -175024.48, -173968.22, -174396.16, -174105.42, -174622.14, -180559.59, 0.00, 0.00, 0.00
246, -173870.91, -174441.39, -175030.38, -173964.83, -174391.19, -174097.16, -174629.97, -180571.05, 0.00, 0.00, 0.00
247, -174049.77, -174422.06, -175026.16, -173951.28, -174304.59, -174108.80, -174628.19, -180574.02, 0.00, 0.00, 0.00
248, -174192.66, -174360.55, -174977.77, -173941.38, -174239.64, -174124.17, -174590.59, -180522.63, -0.29, -0.31, 0.88
249, -174335.28, -174299.92, -174930.20, -173931.92, -174381.53, -174114.42, -174575.30, -180472.25, 0.00, 0.00, 0.00
250, -174583.03, -174260.92, -174905.52, -173936.67, -174619.02, -174110.27, -174576.81, -180449.73, 0.00, 0.00, 0.00
251, -174949.27, -174248.31, -174908.27, -173968.56, -174866.45, -174103.56, -174585.45, -180458.23, 0.00, 0.00, 0.00
252, -174971.81, -174226.19, -174900.66, -173949.52, -174875.61, -174114.41, -174577.94, -180452.52, 0.00, 0.00, 0.00
253, -174928.59, -174203.14, -174891.69, -173928.23, -174856.17, -174116.64, -174569.69, -180443.44, 0.00, 0.00, 0.00
254, -174903.47, -17