%OpenBCI Raw EEG Data
%
%Sample Rate = 250.0 Hz
%First Column = SampleIndex
%Other Columns = EEG data in microvolts followed by Accel Data (in G) interleaved with Aux Data
0, -187500.02, -187500.02, 187500.00, 187500.00, -10486.12, -119315.22, 2385.18, 36316.42, 0.03, -0.11, 0.48
1, -187500.02, -187500.02, 187500.00, 187500.00, -12615.41, -122314.35, -255.10, 31588.89, 0.00, 0.00, 0.00
2, -187500.02, -187500.02, 187500.00, 187500.00, -8061.80, -117941.05, 4024.16, -16071.44, 0.00, 0.00, 0.00
3, -187500.02, -187500.02, 187500.00, 187500.00, -8905.81, -117796.73, 3868.44, 19962.97, 0.00, 0.00, 0.00
4, -187500.02, -187500.02, 187500.00, 187500.00, -12871.50, -122217.39, -266.63, 43809.62, 0.00, 0.00, 0.00
5, -187500.02, -187500.02, 187500.00, 187500.00, -9445.76, -119469.38, 2592.56, -8082.48, 0.00, 0.00, 0.00
6, -187500.02, -187500.02, 187500.00, 187500.00, -7757.28, -116874.90, 4827.64, 2740.61, 0.00, 0.00, 0.00
7, -187500.02, -187500.02, 187500.00, 187500.00, -12262.01, -121302.45, 526.23, 46997.76, 0.10, -0.19, 0.96
8, -187500.02, -187500.02, 187500.00, 187500.00, -10991.04, -120984.47, 1120.78, 7218.34, 0.00, 0.00, 0.00
9, -187500.02, -187500.02, 187500.00, 187500.00, -7361.64, -116806.57, 4994.54, -10201.31, 0.00, 0.00, 0.00
10, -187500.02, -187500.02, 187500.00, 187500.00, -11065.34, -119953.63, 1784.65, 40905.03, 0.00, 0.00, 0.00
11, -187500.02, -187500.02, 187500.00, 187500.00, -12172.31, -121996.58, 88.60, 24010.96, 0.00, 0.00, 0.00
12, -187500.02, -187500.02, 187500.00, 187500.00, -7670.63, -117416.88, 4494.51, -16239.37, 0.00, 0.00, 0.00
13, -187500.02, -187500.02, 187500.00, 187500.00, -9620.21, -118467.51, 3212.57, 27803.42, 0.00, 0.00, 0.00
14, -187500.02, -187500.02, 187500.00, 187500.00, -12847.40, -122371.70, -359.97, 39127.40, 0.00, 0.00, 0.00
15, -187500.02, -187500.02, 187500.00, 187500.00, -8739.29, -118728.88, 3300.66, -12956.37, 0.00, 0.00, 0.00
16, -187500.02, -187500.02, 187500.00, 187500.00, -8204.30, -117207.70, 4479.38, 10333.73, 0.00, 0.00, 0.00
17, -187500.02, -187500.02, 187500.00, 187500.00, -12658.66, -121836.72, 58.18, 46945.97, 0.09, -0.20, 0.96
18, -187500.02, -187500.02, 187500.00, 187500.00, -10322.75, -120377.17, 1728.10, -33.66, 0.00, 0.00, 0.00
19, -187500.02, -187500.02, 187500.00, 187500.00, -7440.96, -116762.80, 5003.59, -5050.02, 0.00, 0.00, 0.00
20, -187500.02, -187500.02, 187500.00, 187500.00, -11654.80, -120619.22, 1170.40, 44586.05, 0.00, 0.00, 0.00
21, -187500.02, -187500.02, 187500.00, 187500.00, -11691.26, -121630.03, 484.68, 16282.37, 0.00, 0.00, 0.00
22, -187500.02, -187500.02, 187500.00, 187500.00, -7426.90, -117066.56, 4806.45, -14478.88, 0.00, 0.00, 0.00
23, -187500.02, -187500.02, 187500.00, 187500.00, -10276.42, -119148.88, 2564.06, 34545.92, 0.00, 0.00, 0.00
24, -187500.02, -187500.02, 187500.00, 187500.00, -12618.72, -122310.89, -247.55, 32708.85, 0.00, 0.00, 0.00
25, -187500.02, -187500.02, 187500.00, 187500.00, -8195.92, -118109.41, 3882.52, -15385.17, 0.00, 0.00, 0.00
26, -187500.02, -187500.02, 187500.00, 187500.00, -8877.22, -117835.17, 3862.27, 19239.78, 0.00, 0.00, 0.00
27, -187500.02, -187500.02, 187500.00, 187500.00, -12826.46, -122228.32, -251.46, 44003.18, 0.10, -0.20, 0.96
28, -187500.02, -187500.02, 187500.00, 187500.00, -9472.16, -119557.29, 2537.66, -7594.09, 0.00, 0.00, 0.00
29, -187500.02, -187500.02, 187500.00, 187500.00, -7753.26, -116941.95, 4803.08, 2422.42, 0.00, 0.00, 0.00
30, -187500.02, -187500.02, 187500.00, 187500.00, -12261.38, -121371.89, 498.82, 47198.57, 0.00, 0.00, 0.00
31, -187500.02, -187500.02, 187500.00, 187500.00, -11041.74, -121126.67, 1023.64, 8026.98, 0.00, 0.00, 0.00
32, -187500.02, -187500.02, 187500.00, 187500.00, -7316.53, -116862.34, 4982.96, -10793.68, 0.00, 0.00, 0.00
33, -187500.02, -187500.02, 187500.00, 187500.00, -10980.18, -119929.66, 1841.76, 40293.15, 0.00, 0.00, 0.00
34, -187500.02, -187500.02, 187500.00, 187500.00, -12224.97, -122101.48, 19.18, 24832.21, 0.00, 0.00, 0.00
35, -187500.02, -187500.02, 187500.00, 187500.00, -7675.01, -117507.50, 4445.76, -16467.76, 0.00, 0.00, 0.00
36, -187500.02, -187500.02, 187500.00, 187500.00, -9480.20, -118391.62, 3319.57, 26719.14, 0.00, 0.00, 0.00
37, -187500.02, -187500.02, 187500.00, 187500.00, -12838.04, -122386.44, -349.36, 39644.13, 0.08, -0.20, 0.96
38, -187500.02, -187500.02, 187500.00, 187500.00, -8849.26, -118894.45, 3175.65, -12126.20, 0.00, 0.00, 0.00
39, -187500.02, -187500.02, 187500.00, 187500.00, -8230.16, -117330.29, 4403.52, 10419.06, 0.00, 0.00, 0.00
40, -187500.02, -187500.02, 187500.00, 187500.00, -12608.55, -121884.04, 54.05, 46718.56, 0.00, 0.00, 0.00
41, -187500.02, -187500.02, 187500.00, 187500.00, -10270.76, -120400.73, 1741.83, -325.98, 0.00, 0.00, 0.00
42, -187500.02, -187500.02, 187500.00, 187500.00, -7445.28, -116835.09, 4968.66, -4925.85, 0.00, 0.00, 0.00
43, -187500.02, -187500.02, 187500.00, 187500.00, -11678.90, -120723.98, 1109.47, 44984.36, 0.00, 0.00, 0.00
44, -187500.02, -187500.02, 187500.00, 187500.00, -11719.42, -121757.23, 407.23, 16866.76, 0.00, 0.00, 0.00
45, -187500.02, -187500.02, 187500.00, 187500.00, -7396.91, -117137.89, 4784.26, -14990.62, 0.00, 0.00, 0.00
46, -187500.02, -187500.02, 187500.00, 187500.00, -10202.21, -119146.51, 2606.01, 33905.61, 0.00, 0.00, 0.00
47, -187500.02, -187500.02, 187500.00, 187500.00, -12700.22, -122463.51, -357.54, 34148.70, 0.10, -0.21, 0.95
48, -187500.02, -187500.02, 187500.00, 187500.00, -8245.40, -118280.71, 3763.63, -15286.33, 0.00, 0.00, 0.00
49, -187500.02, -187500.02, 187500.00, 187500.00, -8676.37, -117723.41, 4008.87, 17190.57, 0.00, 0.00, 0.00
50, -187500.02, -187500.02, 187500.00, 187500.00, -12785.55, -122207.58, -209.64, 44629.28, 0.00, 0.00, 0.00
51, -187500.02, -187500.02, 187500.00, 187500.00, -9635.88, -119785.27, 2349.03, -6173.64, 0.00, 0.00, 0.00
52, -187500.02, -187500.02, 187500.00, 187500.00, -7677.13, -116967.57, 4813.76, 1167.28, 0.00, 0.00, 0.00
53, -187500.02, -187500.02, 187500.00, 187500.00, -12115.18, -121271.58, 611.99, 46467.69, 0.00, 0.00, 0.00
54, -187500.02, -187500.02, 187500.00, 187500.00, -11069.48, -121170.03, 992.98, 8549.85, 0.00, 0.00, 0.00
55, -187500.02, -187500.02, 187500.00, 187500.00, -7339.42, -116923.20, 4942.31, -10974.80, 0.00, 0.00, 0.00
56, -187500.02, -187500.02, 187500.00, 187500.00, -10929.94, -119924.23, 1863.91, 40048.91, 0.00, 0.00, 0.00
57, -187500.02, -187500.02, 187500.00, 187500.00, -12227.39, -122145.30, -6.06, 25322.83, 0.09, -0.20, 0.95
58, -187500.02, -187500.02, 187500.00, 187500.00, -7697.99, -117581.82, 4398.85, -16498.69, 0.00, 0.00, 0.00
59, -187500.02, -187500.02, 187500.00, 187500.00, -9445.15, -118406.89, 3327.37, 26222.64, 0.00, 0.00, 0.00
60, -187500.02, -187500.02, 187500.00, 187500.00, -12810.21, -122402.20, -348.73, 39770.95, 0.00, 0.00, 0.00
61, -187500.02, -187500.02, 187500.00, 187500.00, -8815.62, -118903.25, 3179.76, -12342.63, 0.00, 0.00, 0.00
62, -187500.02, -187500.02, 187500.00, 187500.00, -8114.67, -117229.09, 4508.37, 9188.69, 0.00, 0.00, 0.00
63, -187500.02, -187500.02, 187500.00, 187500.00, -12577.19, -121831.98, 100.87, 46884.13, 0.00, 0.00, 0.00
64, -187500.02, -187500.02, 187500.00, 187500.00, -10366.05, -120507.21, 1642.20, 654.64, 0.00, 0.00, 0.00
65, -187500.02, -187500.02, 187500.00, 187500.00, -7368.43, -116791.52, 5015.37, -6115.06, 0.00, 0.00, 0.00
66, -187500.02, -187500.02, 187500.00, 187500.00, -11551.20, -120581.11, 1235.14, 44259.22, 0.09, -0.21, 0.96
67, -187500.02, -187500.02, 187500.00, 187500.00, -11805.23, -121822.13, 327.41, 18052.03, 0.00, 0.00, 0.00
68, -187500.02, -187500.02, 187500.00, 187500.00, -7435.91, -117207.58, 4709.62, -15160.94, 0.00, 0.00, 0.00
69, -187500.02, -187500.02, 187500.00, 187500.00, -10086.09, -119048.98, 2685.74, 32951.86, 0.00, 0.00, 0.00
70, -187500.02, -187500.02, 187500.00, 187500.00, -12651.36, -122394.93, -316.59, 34138.51, 0.00, 0.00, 0.00
71, -187500.02, -187500.02, 187500.00, 187500.00, -8273.74, -118291.33, 3732.50, -15169.41, 0.00, 0.00, 0.00
72, -187500.02, -187500.02, 187500.00, 187500.00, -8676.34, -117720.15, 3992.63, 17064.73, 0.00, 0.00, 0.00
73, -187500.02, -187500.02, 187500.00, 187500.00, -12755.40, -122174.83, -199.98, 44534.29, 0.00, 0.00, 0.00
74, -187500.02, -187500.02, 187500.00, 187500.00, -9602.62, -119739.45, 2371.10, -6446.58, 0.00, 0.00, 0.00
75, -187500.02, -187500.02, 187500.00, 187500.00, -7619.91, -116879.23, 4877.11, 365.38, 0.00, 0.00, 0.00
76, -187500.02, -187500.02, 187500.00, 187500.00, -12100.38, -121211.36, 647.78, 46615.43, 0.09, -0.19, 0.95
77, -187500.02, -187500.02, 187500.00, 187500.00, -11163.85, -121251.15, 900.73, 9671.02, 0.00, 0.00, 0.00
78, -187500.02, -187500.02, 187500.00, 187500.00, -7268.43, -116862.45, 4996.46, -12348.29, 0.00, 0.00, 0.00
79, -187500.02, -187500.02, 187500.00, 187500.00, -10777.38, -119716.88, 2049.07, 38951.18, 0.00, 0.00, 0.00
80, -187500.02, -187500.02, 187500.00, 187500.00, -12419.84, -122280.45, -151.19, 27984.74, 0.00, 0.00, 0.00
81, -187500.02, -187500.02, 187500.00, 187500.00, -7827.33, -117756.05, 4239.28, -16480.01, 0.00, 0.00, 0.00
82, -187500.02, -187500.02, 187500.00, 187500.00, -9198.55, -118179.84, 3547.65, 23689.18, 0.00, 0.00, 0.00
83, -187500.02, -187500.02, 187500.00, 187500.00, -12807.48, -122341.73, -307.98, 41161.43, 0.00, 0.00, 0.00
84, -187500.02, -187500.02, 187500.00, 187500.00, -9034.75, -119129.18, 2962.34, -10851.26, 0.00, 0.00, 0.00
85, -187500.02, -187500.02, 187500.00, 187500.00, -8011.51, -117168.96, 4572.36, 7336.36, 0.00, 0.00, 0.00
86, -187500.02, -187500.02, 187500.00, 187500.00, -12447.31, -121683.32, 231.63, 46613.33, 0.09, -0.21, 0.96
87, -187500.02, -187500.02, 187500.00, 187500.00, -10465.22, -120584.10, 1558.43, 1818.27, 0.00, 0.00, 0.00
88, -187500.02, -187500.02, 187500.00, 187500.00, -7352.96, -116782.70, 5028.49, -7138.61, 0.00, 0.00, 0.00
89, -187500.02, -187500.02, 187500.00, 187500.00, -11433.59, -120438.37, 1368.24, 43407.80, 0.00, 0.00, 0.00
90, -187500.02, -187500.02, 187500.00, 187500.00, -11819.92, -121794.54, 345.16, 18770.97, 0.00, 0.00, 0.00
91, -187500.02, -187500.02, 187500.00, 187500.00, -7447.20, -117194.62, 4720.82, -15469.02, 0.00, 0.00, 0.00
92, -187500.02, -187500.02, 187500.00, 187500.00, -10024.91, -118951.64, 2779.51, 32191.56, 0.00, 0.00, 0.00
93, -187500.02, -187500.02, 187500.00, 187500.00, -12687.12, -122394.21, -314.85, 34879.20, 0.00, 0.00, 0.00
94, -187500.02, -187500.02, 187500.00, 187500.00, -8305.93, -118323.58, 3707.51, -15141.61, 0.00, 0.00, 0.00
95, -187500.02, -187500.02, 187500.00, 187500.00, -8550.12, -117579.29, 4132.10, 15679.73, 0.00, 0.00, 0.00
96, -187500.02, -187500.02, 187500.00, 187500.00, -12732.87, -122099.35, -130.69, 44944.19, 0.09, -0.21, 0.95
97, -187500.02, -187500.02, 187500.00, 187500.00, -9724.24, -119847.05, 2270.85, -5359.08, 0.00, 0.00, 0.00
98, -187500.02, -187500.02, 187500.00, 187500.00, -7589.67, -116872.53, 4891.86, -288.16, 0.00, 0.00, 0.00
99, -187500.02, -187500.02, 187500.00, 187500.00, -12022.40, -121129.71, 729.36, 46241.04, 0.00, 0.00, 0.00
100, -187500.02, -187500.02, 187500.00, 187500.00, -11199.32, -121274.44, 880.82, 10144.61, 0.00, 0.00, 0.00
101, -187500.02, -187500.02, 187500.00, 187500.00, -7312.06, -116917.99, 4950.53, -12176.76, 0.00, 0.00, 0.00
102, -187500.02, -187500.02, 187500.00, 187500.00, -10751.86, -119717.99, 2052.43, 38646.14, 0.00, 0.00, 0.00
103, -187500.02, -187500.02, 187500.00, 187500.00, -12300.21, -122166.92, -45.80, 26856.78, 0.00, 0.00, 0.00
104, -187500.02, -187500.02, 187500.00, 187500.00, -7784.73, -117676.14, 4301.70, -16358.53, 0.00, 0.00, 0.00
105, -187500.02, -187500.02, 187500.00, 187500.00, -9323.83, -118289.72, 3433.67, 24868.26, 0.00, 0.00, 0.00
106, -187500.02, -187500.02, 187500.00, 187500.00, -12799.66, -122363.97, -327.32, 40432.43, 0.09, -0.21, 0.96
107, -187500.02, -187500.02, 187500.00, 187500.00, -8897.94, -118990.58, 3086.75, -11845.31, 0.00, 0.00, 0.00
108, -187500.02, -187500.02, 187500.00, 187500.00, -8007.49, -117131.23, 4593.24, 7707.08, 0.00, 0.00, 0.00
109, -187500.02, -187500.02, 187500.00, 187500.00, -12521.20, -121744.72, 165.49, 47183.08, 0.00, 0.00, 0.00
110, -187500.02, -187500.02, 187500.00, 187500.00, -10518.71, -120659.85, 1483.33, 2177.26, 0.00, 0.00, 0.00
111, -187500.02, -187500.02, 187500.00, 187500.00, -7313.74, -116776.48, 5029.05, -7610.12, 0.00, 0.00, 0.00
112, -187500.02, -187500.02, 187500.00, 187500.00, -11385.44, -120400.73, 1394.57, 43238.46, 0.00, 0.00, 0.00
113, -187500.02, -187500.02, 187500.00, 187500.00, -11893.12, -121885.17, 251.01, 19659.39, 0.00, 0.00, 0.00
114, -187500.02, -187500.02, 187500.00, 187500.00, -7487.19, -117287.65, 4632.91, -15395.55, 0.00, 0.00, 0.00
115, -187500.02, -187500.02, 187500.00, 187500.00, -9960.18, -118938.23, 2792.29, 31744.37, 0.00, 0.00, 0.00
116, -187500.02, -187500.02, 187500.00, 187500.00, -12667.22, -122403.05, -327.70, 35043.31, 0.09, -0.20, 0.96
117, -187500.02, -187500.02, 187500.00, 187500.00, -8317.51, -118367.23, 3667.32, -15205.58, 0.00, 0.00, 0.00
118, -187500.02, -187500.02, 187500.00, 187500.00, -8495.29, -117554.68, 4156.17, 15062.35, 0.00, 0.00, 0.00
119, -187500.02, -187500.02, 187500.00, 187500.00, -12688.44, -122064.80, -104.96, 44886.13, 0.00, 0.00, 0.00
120, -187500.02, -187500.02, 187500.00, 187500.00, -9730.63, -119858.19, 2253.01, -5289.94, 0.00, 0.00, 0.00
121, -187500.02, -187500.02, 187500.00, 187500.00, -7548.23, -116829.93, 4926.37, -1062.38, 0.00, 0.00, 0.00
122, -187500.02, -187500.02, 187500.00, 187500.00, -11993.30, -121082.50, 756.03, 46249.78, 0.00, 0.00, 0.00
123, -187500.02, -187500.02, 187500.00, 187500.00, -11284.03, -121361.05, 772.50, 11218.41, 0.00, 0.00, 0.00
124, -187500.02, -187500.02, 187500.00, 187500.00, -7277.26, -116911.58, 4936.36, -13116.27, 0.00, 0.00, 0.00
125, -187500.02, -187500.02, 187500.00, 187500.00, -10630.80, -119583.77, 2150.19, 37753.17, 0.00, 0.00, 0.00
126, -187500.02, -187500.02, 187500.00, 187500.00, -12442.92, -122299.33, -208.63, 28981.52, 0.09, -0.21, 0.95
127, -187500.02, -187500.02, 187500.00, 187500.00, -7868.84, -117827.64, 4136.59, -16573.04, 0.00, 0.00, 0.00
128, -187500.02, -187500.02, 187500.00, 187500.00, -9068.64, -118066.09, 3612.38, 22339.56, 0.00, 0.00, 0.00
129, -187500.02, -187500.02, 187500.00, 187500.00, -12826.62, -122354.92, -376.60, 42329.64, 0.00, 0.00, 0.00
130, -187500.02, -187500.02, 187500.00, 187500.00, -9170.54, -119318.13, 2737.66, -9892.03, 0.00, 0.00, 0.00
131, -187500.02, -187500.02, 187500.00, 187500.00, -7857.35, -117082.57, 4616.89, 5231.96, 0.00, 0.00, 0.00
132, -187500.02, -187500.02, 187500.00, 187500.00, -12330.03, -121566.33, 287.44, 46626.36, 0.00, 0.00, 0.00
133, -187500.02, -187500.02, 187500.00, 187500.00, -10632.25, -120777.34, 1320.90, 3714.66, 0.00, 0.00, 0.00
134, -187500.02, -187500.02, 187500.00, 187500.00, -7296.37, -116804.58, 4968.81, -8773.15, 0.00, 0.00, 0.00
135, -187500.02, -187500.02, 187500.00, 187500.00, -11239.95, -120264.05, 1481.43, 42228.32, 0.00, 0.00, 0.00
136, -187500.02, -187500.02, 187500.00, 187500.00, -11941.02, -121923.71, 162.30, 20847.11, 0.09, -0.20, 0.95
137, -187500.02, -187500.02, 187500.00, 187500.00, -7487.63, -117308.84, 4572.63, -16196.59, 0.00, 0.00, 0.00
138, -187500.02, -187500.02, 187500.00, 187500.00, -9793.13, -118754.23, 2921.80, 30056.08, 0.00, 0.00, 0.00
139, -187500.02, -187500.02, 187500.00, 187500.00, -12739.20, -122438.07, -418.69, 36837.15, 0.00, 0.00, 0.00
140, -187500.02, -187500.02, 187500.00, 187500.00, -8476.52, -118565.63, 3437.12, -14291.68, 0.00, 0.00, 0.00
141, -187500.02, -187500.02, 187500.00, 187500.00, -8357.45, -117465.97, 4208.88, 13130.11, 0.00, 0.00, 0.00
142, -187500.02, -187500.02, 187500.00, 187500.00, -12648.49, -122021.79, -109.61, 45444.98, 0.00, 0.00, 0.00
143, -187500.02, -187500.02, 187500.00, 187500.00, -9902.69, -120074.44, 2010.47, -3701.81, 0.00, 0.00, 0.00
144, -187500.02, -187500.02, 187500.00, 187500.00, -7459.76, -116824.61, 4908.76, -2645.51, 0.00, 0.00, 0.00
145, -187500.02, -187500.02, 187500.00, 187500.00, -11828.23, -120937.62, 858.82, 45407.01, 0.00, 0.00, 0.00
146, -187500.02, -187500.02, 187500.00, 187500.00, -11361.32, -121444.63, 661.92, 12387.52, 0.09, -0.20, 0.95
147, -187500.02, -187500.02, 187500.00, 187500.00, -7300.24, -116984.71, 4850.57, -13565.70, 0.00, 0.00, 0.00
148, -187500.02, -187500.02, 187500.00, 187500.00, -10506.53, -119494.14, 2216.82, 36715.55, 0.00, 0.00, 0.00
149, -187500.02, -187500.02, 187500.00, 187500.00, -12392.37, -122248.50, -186.15, 28995.71, 0.00, 0.00, 0.00
150, -187500.02, -187500.02, 187500.00, 187500.00, -7897.90, -117863.85, 4084.98, -16390.82, 0.00, 0.00, 0.00
151, -187500.02, -187500.02, 187500.00, 187500.00, -9095.28, -118122.55, 3556.18, 22315.18, 0.00, 0.00, 0.00
152, -187500.02, -187500.02, 187500.00, 187500.00, -12771.54, -122338.63, -359.39, 41625.38, 0.00, 0.00, 0.00
153, -187500.02, -187500.02, 187500.00, 187500.00, -9075.12, -119233.84, 2816.61, -10607.27, 0.00, 0.00, 0.00
154, -187500.02, -187500.02, 187500.00, 187500.00, -7850.60, -117065.00, 4632.00, 5217.21, 0.00, 0.00, 0.00
155, -187500.02, -187500.02, 187500.00, 187500.00, -12377.66, -121621.29, 239.95, 46893.04, 0.00, 0.00, 0.00
156, -187500.02, -187500.02, 187500.00, 187500.00, -10677.67, -120865.04, 1249.19, 4057.87, 0.09, -0.20, 0.96
157, -187500.02, -187500.02, 187500.00, 187500.00, -7283.41, -116850.36, 4939.71, -8971.90, 0.00, 0.00, 0.00
158, -187500.02, -187500.02, 187500.00, 187500.00, -11214.88, -120288.81, 1468.22, 42028.92, 0.00, 0.00, 0.00
159, -187500.02, -187500.02, 187500.00, 187500.00, -11969.56, -122008.53, 93.54, 21086.61, 0.00, 0.00, 0.00
160, -187500.02, -187500.02, 187500.00, 187500.00, -7505.92, -117404.92, 4496.70, -16070.72, 0.00, 0.00, 0.00
161, -187500.02, -187500.02, 187500.00, 187500.00, -9765.28, -118812.48, 2878.82, 29910.05, 0.00, 0.00, 0.00
162, -187500.02, -187500.02, 187500.00, 187500.00, -12675.70, -122442.80, -415.36, 36144.94, 0.00, 0.00, 0.00
163, -187500.02, -187500.02, 187500.00, 187500.00, -8446.37, -118581.66, 3427.15, -14435.05, 0.00, 0.00, 0.00
164, -187500.02, -187500.02, 187500.00, 187500.00, -8427.41, -117600.05, 4086.55, 13958.08, 0.00, 0.00, 0.00
165, -187500.02, -187500.02, 187500.00, 187500.00, -12658.24, -122130.33, -201.46, 45325.29, 0.00, 0.00, 0.00
166, -187500.02, -187500.02, 187500.00, 187500.00, -9826.03, -120084.07, 2013.60, -4382.95, 0.09, -0.20, 0.96
167, -187500.02, -187500.02, 187500.00, 187500.00, -7450.37, -116882.92, 4863.25, -2607.38, 0.00, 0.00, 0.00
168, -187500.02, -187500.02, 187500.00, 187500.00, -11853.02, -121043.74, 770.93, 45633.23, 0.00, 0.00, 0.00
169, -187500.02, -187500.02, 187500.00, 187500.00, -11361.46, -121544.00, 581.35, 12488.72, 0.00, 0.00, 0.00
170, -187500.02, -187500.02, 187500.00, 187500.00, -7213.44, -116987.88, 4862.11, -14621.77, 0.00, 0.00, 0.00
171, -187500.02, -187500.02, 187500.00, 187500.00, -10395.55, -119426.39, 2288.19, 35858.43, 0.00, 0.00, 0.00
172, -187500.02, -187500.02, 187500.00, 187500.00, -12508.53, -122411.09, -332.44, 30729.78, 0.00, 0.00, 0.00
173, -187500.02, -187500.02, 187500.00, 187500.00, -7981.25, -118063.19, 3922.19, -16353.76, 0.00, 0.00, 0.00
174, -187500.02, -187500.02, 187500.00, 187500.00, -8894.47, -118012.42, 3685.22, 20211.43, 0.00, 0.00, 0.00
175, -187500.02, -187500.02, 187500.00, 187500.00, -12771.09, -122363.66, -373.74, 42708.91, 0.00, 0.00, 0.00
176, -187500.02, -187500.02, 187500.00, 187500.00, -9281.25, -119528.38, 2563.16, -9074.88, 0.09, -0.20, 0.96
177, -187500.02, -187500.02, 187500.00, 187500.00, -7767.03, -117115.29, 4626.23, 3700.82, 0.00, 0.00, 0.00
178, -187500.02, -187500.02, 187500.00, 187500.00, -12231.30, -121550.84, 333.22, 46335.95, 0.00, 0.00, 0.00
179, -187500.02, -187500.02, 187500.00, 187500.00, -10724.79, -120966.77, 1174.70, 4795.90, 0.00, 0.00, 0.00
180, -187500.02, -187500.02, 187500.00, 187500.00, -7250.82, -116893.92, 4930.55, -9989.15, 0.00, 0.00, 0.00
181, -187500.02, -187500.02, 187500.00, 187500.00, -11087.05, -120208.84, 1567.97, 41163.33, 0.00, 0.00, 0.00
182, -187500.02, -187500.02, 187500.00, 187500.00, -11992.40, -122062.00, 59.63, 21972.90, 0.00, 0.00, 0.00
183, -187500.02, -187500.02, 187500.00, 187500.00, -7507.59, -117460.00, 4474.26, -16727.51, 0.00, 0.00, 0.00
184, -187500.02, -187500.02, 187500.00, 187500.00, -9629.40, -118700.86, 3013.98, 28428.04, 0.00, 0.00, 0.00
185, -187500.02, -187500.02, 187500.00, 187500.00, -12725.45, -122498.93, -448.24, 37543.31, 0.00, 0.00, 0.00
186, -187500.02, -187500.02, 187500.00, 187500.00, -8543.98, -118745.83, 3305.44, -14060.79, 0.09, -0.20, 0.96
187, -187500.02, -187500.02, 187500.00, 187500.00, -8211.63, -117434.70, 4283.20, 11296.59, 0.00, 0.00, 0.00
188, -187500.02, -187500.02, 187500.00, 187500.00, -12590.45, -122035.31, -90.21, 45816.80, 0.00, 0.00, 0.00
189, -187500.02, -187500.02, 187500.00, 187500.00, -10047.58, -120334.13, 1806.98, -2376.17, 0.00, 0.00, 0.00
190, -187500.02, -187500.02, 187500.00, 187500.00, -7346.26, -116859.81, 4935.35, -4744.25, 0.00, 0.00, 0.00
191, -187500.02, -187500.02, 187500.00, 187500.00, -11651.45, -120840.84, 997.04, 44579.43, 0.00, 0.00, 0.00
192, -187500.02, -187500.02, 187500.00, 187500.00, -11526.97, -121696.62, 467.44, 14655.48, 0.00, 0.00, 0.00
193, -187500.02, -187500.02, 187500.00, 187500.00, -7323.48, -117168.27, 4747.80, -14614.02, 0.00, 0.00, 0.00
194, -187500.02, -187500.02, 187500.00, 187500.00, -10284.26, -119387.23, 2384.60, 34861.86, 0.00, 0.00, 0.00
195, -187500.02, -187500.02, 187500.00, 187500.00, -12484.70, -122428.23, -298.02, 31184.42, 0.00, 0.00, 0.00
196, -187500.02, -187500.02, 187500.00, 187500.00, -8013.41, -118150.69, 3899.04, -16397.15, 0.09, -0.20, 0.96
197, -187500.02, -187500.02, 187500.00, 187500.00, -8821.12, -117995.01, 3765.46, 19275.79, 0.00, 0.00, 0.00
198, -187500.02, -187500.02, 187500.00, 187500.00, -12733.59, -122363.66, -317.66, 42995.73, 0.00, 0.00, 0.00
199, -187500.02, -187500.02, 187500.00, 187500.00, -9302.35, -119597.90, 2556.35, -8914.57, 0.00, 0.00, 0.00
200, -187500.02, -187500.02, 187500.00, 187500.00, -7634.28, -117013.23, 4786.51, 1841.27, 0.00, 0.00, 0.00
201, -187500.02, -187500.02, 187500.00, 187500.00, -12154.12, -121452.38, 477.14, 46271.89, 0.00, 0.00, 0.00
202, -187500.02, -187500.02, 187500.00, 187500.00, -10887.96, -121146.12, 1060.63, 6691.24, 0.00, 0.00, 0.00
203, -187500.02, -187500.02, 187500.00, 187500.00, -7213.56, -116924.20, 4980.57, -11303.41, 0.00, 0.00, 0.00
204, -187500.02, -187500.02, 187500.00, 187500.00, -10921.26, -120053.88, 1787.18, 39970.91, 0.00, 0.00, 0.00
205, -187500.02, -187500.02, 187500.00, 187500.00, -12147.55, -122222.48, -27.47, 24202.11, 0.00, 0.00, 0.00
206, -187500.02, -187500.02, 187500.00, 187500.00, -7621.14, -117665.91, 4363.98, -16592.19, 0.09, -0.19, 0.97
207, -187500.02, -187500.02, 187500.00, 187500.00, -9457.18, -118609.95, 3184.39, 26770.68, 0.00, 0.00, 0.00
208, -187500.02, -187500.02, 187500.00, 187500.00, -12699.90, -122500.88, -380.34, 38247.19, 0.00, 0.00, 0.00
209, -187500.02, -187500.02, 187500.00, 187500.00, -8654.39, -118915.08, 3227.06, -13418.04, 0.00, 0.00, 0.00
210, -187500.02, -187500.02, 187500.00, 187500.00, -8144.93, -117444.40, 4362.08, 10225.74, 0.00, 0.00, 0.00
211, -187500.02, -187500.02, 187500.00, 187500.00, -12505.73, -121991.48, 24.05, 45713.14, 0.00, 0.00, 0.00
212, -187500.02, -187500.02, 187500.00, 187500.00, -10085.93, -120407.03, 1804.88, -1838.81, 0.00, 0.00, 0.00
213, -187500.02, -187500.02, 187500.00, 187500.00, -7327.68, -116886.88, 4981.42, -5472.06, 0.00, 0.00, 0.00
214, -187500.02, -187500.02, 187500.00, 187500.00, -11599.17, -120822.17, 1079.43, 44370.38, 0.00, 0.00, 0.00
215, -187500.02, -187500.02, 187500.00, 187500.00, -11588.28, -121804.58, 426.05, 15730.11, 0.00, 0.00, 0.00
216, -187500.02, -187500.02, 187500.00, 187500.00, -7285.15, -117194.62, 4790.74, -15615.69, 0.09, -0.20, 0.96
217, -187500.02, -187500.02, 187500.00, 187500.00, -10129.59, -119246.46, 2574.16, 33430.14, 0.00, 0.00, 0.00
218, -187500.02, -187500.02, 187500.00, 187500.00, -12582.82, -122524.52, -347.75, 33009.66, 0.00, 0.00, 0.00
219, -187500.02, -187500.02, 187500.00, 187500.00, -8125.95, -118334.27, 3778.47, -16039.21, 0.00, 0.00, 0.00
220, -187500.02, -187500.02, 187500.00, 187500.00, -8622.25, -117852.52, 3950.31, 17057.09, 0.00, 0.00, 0.00
221, -187500.02, -187500.02, 187500.00, 187500.00, -12720.00, -122341.51, -269.72, 44072.25, 0.00, 0.00, 0.00
222, -187500.02, -187500.02, 187500.00, 187500.00, -9536.42, -119892.05, 2315.35, -6960.09, 0.00, 0.00, 0.00
223, -187500.02, -187500.02, 187500.00, 187500.00, -7570.56, -117069.09, 4784.03, 444.04, 0.00, 0.00, 0.00
224, -187500.02, -187500.02, 187500.00, 187500.00, -12012.70, -121375.13, 581.97, 45856.55, 0.00, 0.00, 0.00
225, -187500.02, -187500.02, 187500.00, 187500.00, -10982.10, -121292.74, 945.93, 7983.75, 0.00, 0.00, 0.00
226, -187500.02, -187500.02, 187500.00, 187500.00, -7198.33, -116993.99, 4945.66, -12327.25, 0.10, -0.20, 0.96
227, -187500.02, -187500.02, 187500.00, 187500.00, -10760.62, -119939.14, 1913.85, 38901.29, 0.00, 0.00, 0.00
228, -187500.02, -187500.02, 187500.00, 187500.00, -12195.69, -122293.36, -88.69, 25643.24, 0.00, 0.00, 0.00
229, -187500.02, -187500.02, 187500.00, 187500.00, -7647.65, -117749.79, 4303.58, -17298.37, 0.00, 0.00, 0.00
230, -187500.02, -187500.02, 187500.00, 187500.00, -9246.58, -118413.26, 3384.70, 24420.06, 0.00, 0.00, 0.00
231, -187500.02, -187500.02, 187500.00, 187500.00, -12738.91, -122508.68, -392.65, 40024.62, 0.00, 0.00, 0.00
232, -187500.02, -187500.02, 187500.00, 187500.00, -8838.75, -119147.06, 3016.90, -12290.11, 0.00, 0.00, 0.00
233, -187500.02, -187500.02, 187500.00, 187500.00, -7921.30, -117268.73, 4545.79, 7032.86, 0.00, 0.00, 0.00
234, -187500.02, -187500.02, 187500.00, 187500.00, -12431.95, -121874.60, 124.43, 46556.25, 0.00, 0.00, 0.00
235, -187500.02, -187500.02, 187500.00, 187500.00, -10444.70, -120807.35, 1427.54, 1679.31, 0.00, 0.00, 0.00
236, -187500.02, -187500.02, 187500.00, 187500.00, -7222.61, -116913.12, 4989.22, -8323.97, 0.09, -0.20, 0.96
237, -187500.02, -187500.02, 187500.00, 187500.00, -11277.64, -120513.02, 1379.50, 42453.58, 0.00, 0.00, 0.00
238, -187500.02, -187500.02, 187500.00, 187500.00, -11805.88, -122004.69, 228.57, 18991.81, 0.00, 0.00, 0.00
239, -187500.02, -187500.02, 187500.00, 187500.00, -7405.83, -117415.48, 4604.71, -16091.22, 0.00, 0.00, 0.00
240, -187500.02, -187500.02, 187500.00, 187500.00, -9855.60, -119044.34, 2785.03, 30977.84, 0.00, 0.00, 0.00
241, -187500.02, -187500.02, 187500.00, 187500.00, -12569.26, -122508.07, -335.32, 34397.37, 0.00, 0.00, 0.00
242, -187500.02, -187500.02, 187500.00, 187500.00, -8272.69, -118523.74, 3612.33, -15377.11, 0.00, 0.00, 0.00
243, -187500.02, -187500.02, 187500.00, 187500.00, -8508.53, -117796.05, 4027.34, 15316.17, 0.00, 0.00, 0.00
244, -187500.02, -187500.02, 187500.00, 187500.00, -12662.73, -122301.25, -222.91, 44617.46, 0.00, 0.00, 0.00
245, -187500.02, -187500.02, 187500.00, 187500.00, -9653.14, -120049.96, 2180.23, -5867.49, 0.00, 0.00, 0.00
246, -187500.02, -187500.02, 187500.00, 187500.00, -7462.31, -117011.98, 4867.29, -1628.41, 0.09, -0.20, 0.96
247, -187500.02, -187500.02, 187500.00, 187500.00, -11905.25, -121260.55, 706.63, 45657.30, 0.00, 0.00, 0.00
248, -187500.02, -187500.02, 187500.00, 187500.00, -11191.90, -121533.34, 734.34, 10622.00, 0.00, 0.00, 0.00
249, -187500.02, -187500.02, 187500.00, 187500.00, -7155.49, -117049.63, 4933.95, -14075.16, 0.00, 0.00, 0.00
250, -187500.02, -187500.02, 187500.00, 187500.00, -10488.65, -119680.31, 2185.24, 36826.82, 0.00, 0.00, 0.00
251, -187500.02, -187500.02, 187500.00, 187500.00, -12382.84, -122466.45, -238.36, 28873.96, 0.00, 0.00, 0.00
252, -187500.02, -187500.02, 187500.00, 187500.00, -7832.77, -118043.70, 4076.53, -16875.43, 0.00, 0.00, 0.00
253, -187500.02, -187500.02, 187500.00, 187500.00, -8969.40, -118228.68, 3617.03, 21472.45, 0.00, 0.00, 0.00
254, -187500.02, -187500.02, 187500.00, 187500.00, -12682.09, -122451.30, -305.03, 41048.64, 0.00, 0.00, 0.00
255, -187500.02, -187500.02, 187500.00, 187500.00, -9041.03, -119401.47, 2821.68, -10823.05, 0.00, 0.00, 0.00
0, -187500.02, -187500.02, 187500.00, 187500.00, -7818.89, -117260.60, 4613.69, 5227.87, 0.09, -0.20, 0.96
1, -187500.02, -187500.02, 187500.00, 187500.00, -12274.68, -121754.38, 284.92, 46041.78, 0.00, 0.00, 0.00
2, -187500.02, -187500.02, 187500.00, 187500.00, -10504.51, -120889.23, 1393.77, 2641.17, 0.00, 0.00, 0.00
3, -187500.02, -187500.02, 187500.00, 187500.00, -7230.36, -116968.75, 4990.23, -8961.26, 0.00, 0.00, 0.00
4, -187500.02, -187500.02, 187500.00, 187500.00, -11211.61, -120483.19, 1454.05, 42020.45, 0.00, 0.00, 0.00
5, -187500.02, -187500.02, 187500.00, 187500.00, -11856.86, -122095.35, 184.20, 20057.14, 0.00, 0.00, 0.00
6, -187500.02, -187500.02, 187500.00, 187500.00, -7413.11, -117486.24, 4588.79, -16555.58, 0.00, 0.00, 0.00
7, -187500.02, -187500.02, 187500.00, 187500.00, -9755.78, -118981.88, 2892.05, 29935.80, 0.00, 0.00, 0.00
8, -187500.02, -187500.02, 187500.00, 187500.00, -12684.15, -122660.16, -443.55, 36407.93, 0.00, 0.00, 0.00
9, -187500.02, -187500.02, 187500.00, 187500.00, -8399.16, -118768.92, 3429.52, -14810.56, 0.00, 0.00, 0.00
10, -187500.02, -187500.02, 187500.00, 187500.00, -8264.54, -117651.53, 4216.61, 12546.53, 0.09, -0.20, 0.95
11, -187500.02, -187500.02, 187500.00, 187500.00, -12569.68, -122213.95, -111.65, 45077.43, 0.00, 0.00, 0.00
12, -187500.02, -187500.02, 187500.00, 187500.00, -9856.40, -120305.31, 1973.55, -3990.10, 0.00, 0.00, 0.00
13, -187500.02, -187500.02, 187500.00, 187500.00, -7365.17, -117015.49, 4912.51, -3504.02, 0.00, 0.00, 0.00
14, -187500.02, -187500.02, 187500.00, 187500.00, -11712.47, -121096.14, 890.47, 44750.85, 0.00, 0.00, 0.00
15, -187500.02, -187500.02, 187500.00, 187500.00, -11307.57, -121661.32, 633.47, 12275.60, 0.00, 0.00, 0.00
16, -187500.02, -187500.02, 187500.00, 187500.00, -7223.79, -117188.23, 4836.94, -14348.63, 0.00, 0.00, 0.00
17, -187500.02, -187500.02, 187500.00, 187500.00, -10381.22, -119638.13, 2255.20, 35924.19, 0.00, 0.00, 0.00
18, -187500.02, -187500.02, 187500.00, 187500.00, -12378.37, -122503.31, -256.58, 29587.32, 0.00, 0.00, 0.00
19, -187500.02, -187500.02, 187500.00, 187500.00, -7868.08, -118136.21, 4004.83, -16895.95, 0.00, 0.00, 0.00
20, -187500.02, -187500.02, 187500.00, 187500.00, -8890.90, -118202.39, 3656.61, 20471.13, 0.09, -0.20, 0.96
21, -187500.02, -187500.02, 187500.00, 187500.00, -12681.89, -122492.38, -338.34, 41865.96, 0.00, 0.00, 0.00
22, -187500.02, -187500.02, 187500.00, 187500.00, -9116.56, -119552.64, 2689.43, -10101.47, 0.00, 0.00, 0.00
23, -187500.02, -187500.02, 187500.00, 187500.00, -7706.37, -117217.73, 4672.41, 3608.82, 0.00, 0.00, 0.00
24, -187500.02, -187500.02, 187500.00, 187500.00, -12210.02, -121705.91, 334.99, 46091.20, 0.00, 0.00, 0.00
25, -187500.02, -187500.02, 187500.00, 187500.00, -10655.17, -121087.94, 1209.34, 4361.34, 0.00, 0.00, 0.00
26, -187500.02, -187500.02, 187500.00, 187500.00, -7194.56, -117028.23, 4951.87, -9946.19, 0.00, 0.00, 0.00
27, -187500.02, -187500.02, 187500.00, 187500.00, -11069.39, -120388.52, 1553.94, 41206.51, 0.00, 0.00, 0.00
28, -187500.02, -187500.02, 187500.00, 187500.00, -11973.74, -122250.80, 40.84, 21761.30, 0.00, 0.00, 0.00
29, -187500.02, -187500.02, 187500.00, 187500.00, -7483.65, -117658.44, 4444.13, -16635.31, 0.00, 0.00, 0.00
30, -187500.02, -187500.02, 187500.00, 187500.00, -9592.97, -118906.29, 2980.40, 28509.63, 0.09, -0.20, 0.96
31, -187500.02, -187500.02, 187500.00, 187500.00, -12611.61, -122619.68, -397.97, 36490.43, 0.00, 0.00, 0.00
32, -187500.02, -187500.02, 187500.00, 187500.00, -8432.15, -118831.30, 3381.04, -14739.68, 0.00, 0.00, 0.00
33, -187500.02, -187500.02, 187500.00, 187500.00, -8210.24, -117630.08, 4249.13, 11730.26, 0.00, 0.00, 0.00
34, -187500.02, -187500.02, 187500.00, 187500.00, -12535.01, -122198.26, -91.82, 45379.25, 0.00, 0.00, 0.00
35, -187500.02, -187500.02, 187500.00, 187500.00, -9923.57, -120407.44, 1885.03, -3192.72, 0.00, 0.00, 0.00
36, -187500.02, -187500.02, 187500.00, 187500.00, -7349.83, -117050.52, 4896.60, -4225.19, 0.00, 0.00, 0.00
37, -187500.02, -187500.02, 187500.00, 187500.00, -11674.96, -121090.62, 907.77, 44627.47, 0.00, 0.00, 0.00
38, -187500.02, -187500.02, 187500.00, 187500.00, -11392.91, -121794.65, 520.93, 13489.93, 0.00, 0.00, 0.00
39, -187500.02, -187500.02, 187500.00, 187500.00, -7201.96, -117242.52, 4813.85, -15092.90, 0.00, 0.00, 0.00
40, -187500.02, -187500.02, 187500.00, 187500.00, -10248.92, -119538.22, 2377.91, 34736.15, 0.08, -0.20, 0.95
41, -187500.02, -187500.02, 187500.00, 187500.00, -12443.77, -122580.18, -305.75, 30763.91, 0.00, 0.00, 0.00
42, -187500.02, -187500.02, 187500.00, 187500.00, -7938.89, -118270.81, 3914.44, -16734.97, 0.00, 0.00, 0.00
43, -187500.02, -187500.02, 187500.00, 187500.00, -8747.38, -118113.72, 3777.91, 19044.78, 0.00, 0.00, 0.00
44, -187500.02, -187500.02, 187500.00, 187500.00, -12682.36, -122501.62, -323.56, 42691.09, 0.00, 0.00, 0.00
45, -187500.02, -187500.02, 187500.00, 187500.00, -9278.19, -119768.84, 2519.06, -8995.06, 0.00, 0.00, 0.00
46, -187500.02, -187500.02, 187500.00, 187500.00, -7628.47, -117230.34, 4705.58, 2231.51, 0.00, 0.00, 0.00
47, -187500.02, -187500.02, 187500.00, 187500.00, -12105.46, -121646.28, 422.85, 46057.06, 0.00, 0.00, 0.00
48, -187500.02, -187500.02, 187500.00, 187500.00, -10777.94, -121261.12, 1079.03, 5826.50, 0.00, 0.00, 0.00
49, -187500.02, -187500.02, 187500.00, 187500.00, -7152.76, -117066.23, 4964.79, -11542.98, 0.00, 0.00, 0.00
50, -187500.02, -187500.02, 187500.00, 187500.00, -10872.58, -120215.21, 1754.01, 39785.54, 0.09, -0.20, 0.95
51, -187500.02, -187500.02, 187500.00, 187500.00, -12041.13, -122319.20, 2.01, 23504.15, 0.00, 0.00, 0.00
52, -187500.02, -187500.02, 187500.00, 187500.00, -7523.46, -117745.43, 4406.33, -17285.12, 0.00, 0.00, 0.00
53, -187500.02, -187500.02, 187500.00, 187500.00, -9395.02, -118712.13, 3204.82, 26246.54, 0.00, 0.00, 0.00
54, -187500.02, -187500.02, 187500.00, 187500.00, -12681.51, -122656.67, -409.75, 38402.62, 0.00, 0.00, 0.00
55, -187500.02, -187500.02, 187500.00, 187500.00, -8621.34, -119077.04, 3194.56, -13687.81, 0.00, 0.00, 0.00
56, -187500.02, -187500.02, 187500.00, 187500.00, -7992.45, -117471.34, 4456.67, 8751.00, 0.00, 0.00, 0.00
57, -187500.02, -187500.02, 187500.00, 187500.00, -12453.83, -122086.09, 45.87, 45980.55, 0.00, 0.00, 0.00
58, -187500.02, -187500.02, 187500.00, 187500.00, -10205.87, -120719.98, 1628.64, -634.50, 0.00, 0.00, 0.00
59, -187500.02, -187500.02, 187500.00, 187500.00, -7196.55, -116989.14, 5018.08, -7287.38, 0.08, -0.21, 0.95
60, -187500.02, -187500.02, 187500.00, 187500.00, -11378.54, -120767.01, 1251.61, 43173.15, 0.00, 0.00, 0.00
61, -187500.02, -187500.02, 187500.00, 187500.00, -11663.09, -122031.09, 326.40, 17170.34, 0.00, 0.00, 0.00
62, -187500.02, -187500.02, 187500.00, 187500.00, -7312.95, -117444.47, 4687.67, -16098.71, 0.00, 0.00, 0.00
63, -187500.02, -187500.02, 187500.00, 187500.00, -9935.44, -119268.44, 2687.55, 31903.02, 0.00, 0.00, 0.00
64, -187500.02, -187500.02, 187500.00, 187500.00, -12499.27, -122613.59, -307.65, 33206.84, 0.00, 0.00, 0.00
65, -187500.02, -187500.02, 187500.00, 187500.00, -8128.23, -118521.28, 3733.93, -16199.56, 0.00, 0.00, 0.00
66, -187500.02, -187500.02, 187500.00, 187500.00, -8506.60, -117925.54, 4020.79, 15762.34, 0.00, 0.00, 0.00
67, -187500.02, -187500.02, 187500.00, 187500.00, -12614.70, -122405.70, -195.91, 43834.65, 0.00, 0.00, 0.00
68, -187500.02, -187500.02, 187500.00, 187500.00, -9512.05, -120041.58, 2307.93, -6910.29, 0.00, 0.00, 0.00
69, -187500.02, -187500.02, 187500.00, 187500.00, -7459.49, -117130.09, 4865.37, -915.13, 0.09, -0.20, 0.95
70, -187500.02, -187500.02, 187500.00, 187500.00, -11937.17, -121447.93, 646.99, 45743.36, 0.00, 0.00, 0.00
71, -187500.02, -187500.02, 187500.00, 187500.00, -11095.76, -121595.25, 796.10, 9591.54, 0.00, 0.00, 0.00
72, -187500.02, -187500.02, 187500.00, 187500.00, -7146.81, -117186.68, 4917.74, -13363.82, 0.00, 0.00, 0.00
73, -187500.02, -187500.02, 187500.00, 187500.00, -10562.12, -119941.58, 2060.90, 37493.51, 0.00, 0.00, 0.00
74, -187500.02, -187500.02, 187500.00, 187500.00, -12232.06, -122508.30, -150.96, 26876.14, 0.00, 0.00, 0.00
75, -187500.02, -187500.02, 187500.00, 187500.00, -7717.23, -118061.66, 4164.80, -16859.59, 0.00, 0.00, 0.00
76, -187500.02, -187500.02, 187500.00, 187500.00, -9135.14, -118562.39, 3406.81, 23561.33, 0.00, 0.00, 0.00
77, -187500.02, -187500.02, 187500.00, 187500.00, -12638.82, -122635.41, -357.49, 39630.71, 0.00, 0.00, 0.00
78, -187500.02, -187500.02, 187500.00, 187500.00, -8808.26, -119336.34, 2990.46, -12395.20, 0.00, 0.00, 0.00
79, -187500.02, -187500.02, 187500.00, 187500.00, -7877.34, -117461.56, 4519.21, 6825.98, 0.09, -0.20, 0.95
80, -187500.02, -187500.02, 187500.00, 187500.00, -12314.60, -121992.71, 171.17, 45746.11, 0.00, 0.00, 0.00
81, -187500.02, -187500.02, 187500.00, 187500.00, -10293.00, -120851.25, 1538.85, 636.44, 0.00, 0.00, 0.00
82, -187500.02, -187500.02, 187500.00, 187500.00, -7195.79, -117061.20, 4995.70, -8085.72, 0.00, 0.00, 0.00
83, -187500.02, -187500.02, 187500.00, 187500.00, -11297.93, -120739.72, 1315.40, 42641.92, 0.00, 0.00, 0.00
84, -187500.02, -187500.02, 187500.00, 187500.00, -11716.92, -122139.77, 255.23, 18297.76, 0.00, 0.00, 0.00
85, -187500.02, -187500.02, 187500.00, 187500.00, -7287.45, -117495.88, 4679.25, -16866.09, 0.00, 0.00, 0.00
86, -187500.02, -187500.02, 187500.00, 187500.00, -9772.50, -119136.73, 2846.29, 30368.22, 0.00, 0.00, 0.00
87, -187500.02, -187500.02, 187500.00, 187500.00, -12549.12, -122667.64, -336.80, 34481.99, 0.00, 0.00, 0.00
88, -187500.02, -187500.02, 187500.00, 187500.00, -8227.12, -118683.34, 3611.15, -15712.02, 0.00, 0.00, 0.00
89, -187500.02, -187500.02, 187500.00, 187500.00, -8354.90, -117834.62, 4139.45, 14068.32, 0.09, -0.20, 0.95
90, -187500.02, -187500.02, 187500.00, 187500.00, -12572.30, -122369.38, -141.24, 44309.56, 0.00, 0.00, 0.00
91, -187500.02, -187500.02, 187500.00, 187500.00, -9665.27, -120239.57, 2151.94, -5670.73, 0.00, 0.00, 0.00
92, -187500.02, -187500.02, 187500.00, 187500.00, -7389.06, -117143.81, 4898.97, -2291.25, 0.00, 0.00, 0.00
93, -187500.02, -187500.02, 187500.00, 187500.00, -11790.41, -121333.89, 791.32, 45055.82, 0.00, 0.00, 0.00
94, -187500.02, -187500.02, 187500.00, 187500.00, -11155.22, -121669.55, 760.16, 10519.60, 0.00, 0.00, 0.00
95, -187500.02, -187500.02, 187500.00, 187500.00, -7169.66, -117256.15, 4897.89, -13938.17, 0.00, 0.00, 0.00
96, -187500.02, -187500.02, 187500.00, 187500.00, -10467.81, -119884.72, 2156.18, 36738.71, 0.00, 0.00, 0.00
97, -187500.02, -187500.02, 187500.00, 187500.00, -12266.57, -122572.91, -174.84, 27981.77, 0.00, 0.00, 0.00
98, -187500.02, -187500.02, 187500.00, 187500.00, -7748.08, -118152.48, 4125.66, -17135.81, 0.00, 0.00, 0.00
99, -187500.02, -187500.02, 187500.00, 187500.00, -8994.05, -118460.53, 3548.94, 21948.27, 0.09, -0.20, 0.96
100, -187500.02, -187500.02, 187500.00, 187500.00, -12685.13, -122700.14, -383.04, 41230.99, 0.00, 0.00, 0.00
101, -187500.02, -187500.02, 187500.00, 187500.00, -8972.82, -119592.60, 2799.51, -11188.88, 0.00, 0.00, 0.00
102, -187500.02, -187500.02, 187500.00, 187500.00, -7676.57, -117350.59, 4687.03, 4025.37, 0.00, 0.00, 0.00
103, -187500.02, -187500.02, 187500.00, 187500.00, -12203.47, -121877.66, 317.93, 45970.29, 0.00, 0.00, 0.00
104, -187500.02, -187500.02, 187500.00, 187500.00, -10571.30, -121179.95, 1271.90, 3568.03, 0.00, 0.00, 0.00
105, -187500.02, -187500.02, 187500.00, 187500.00, -7144.67, -117141.17, 4992.31, -10006.99, 0.00, 0.00, 0.00
106, -187500.02, -187500.02, 187500.00, 187500.00, -11038.16, -120526.77, 1570.12, 41015.70, 0.00, 0.00, 0.00
107, -187500.02, -187500.02, 187500.00, 187500.00, -11864.42, -122303.73, 138.16, 20736.03, 0.00, 0.00, 0.00
108, -187500.02, -187500.02, 187500.00, 187500.00, -7402.70, -117714.05, 4533.58, -17048.12, 0.00, 0.00, 0.00
109, -187500.02, -187500.02, 187500.00, 187500.00, -9577.92, -119028.60, 3007.96, 28495.08, 0.09, -0.21, 0.95
110, -187500.02, -187500.02, 187500.00, 187500.00, -12551.24, -122704.23, -330.16, 35796.25, 0.00, 0.00, 0.00
111, -187500.02, -187500.02, 187500.00, 187500.00, -8358.81, -118892.05, 3469.62, -15151.96, 0.00, 0.00, 0.00
112, -187500.02, -187500.02, 187500.00, 187500.00, -8217.73, -117779.65, 4252.89, 12027.29, 0.00, 0.00, 0.00
113, -187500.02, -187500.02, 187500.00, 187500.00, -12509.20, -122337.27, -74.07, 44938.02, 0.00, 0.00, 0.00
114, -187500.02, -187500.02, 187500.00, 187500.00, -9817.76, -120458.73, 1981.55, -4089.72, 0.00, 0.00, 0.00
115, -187500.02, -187500.02, 187500.00, 187500.00, -7260.27, -117100.56, 4984.44, -4681.15, 0.00, 0.00, 0.00
116, -187500.02, -187500.02, 187500.00, 187500.00, -11621.92, -121169.52, 966.94, 44316.64, 0.00, 0.00, 0.00
117, -187500.02, -187500.02, 187500.00, 187500.00, -11356.72, -121896.89, 561.95, 13260.84, 0.00, 0.00, 0.00
118, -187500.02, -187500.02, 187500.00, 187500.00, -7153.38, -117343.26, 4857.15, -15444.97, 0.00, 0.00, 0.00
119, -187500.02, -187500.02, 187500.00, 187500.00, -10176.17, -119616.67, 2438.15, 34264.30, 0.09, -0.20, 0.96
120, -187500.02, -187500.02, 187500.00, 187500.00, -12371.11, -122651.88, -242.90, 30253.00, 0.00, 0.00, 0.00
121, -187500.02, -187500.02, 187500.00, 187500.00, -7864.30, -118332.50, 3983.26, -17411.83, 0.00, 0.00, 0.00
122, -187500.02, -187500.02, 187500.00, 187500.00, -8644.63, -118133.19, 3880.08, 18203.86, 0.00, 0.00, 0.00
123, -187500.02, -187500.02, 187500.00, 187500.00, -12617.67, -122546.66, -252.73, 42524.57, 0.00, 0.00, 0.00
124, -187500.02, -187500.02, 187500.00, 187500.00, -9267.28, -119882.17, 2528.63, -9029.01, 0.00, 0.00, 0.00
125, -187500.02, -187500.02, 187500.00, 187500.00, -7559.31, -117297.86, 4761.73, 1424.66, 0.00, 0.00, 0.00
126, -187500.02, -187500.02, 187500.00, 187500.00, -12013.97, -121678.89, 504.95, 45454.73, 0.00, 0.00, 0.00
127, -187500.02, -187500.02, 187500.00, 187500.00, -10730.27, -121335.62, 1117.97, 5645.67, 0.00, 0.00, 0.00
128, -187500.02, -187500.02, 187500.00, 187500.00, -7100.52, -117144.30, 5004.26, -11999.11, 0.00, 0.00, 0.00
129, -187500.02, -187500.02, 187500.00, 187500.00, -10819.54, -120288.13, 1795.65, 39433.19, 0.09, -0.20, 0.96
130, -187500.02, -187500.02, 187500.00, 187500.00, -12046.52, -122460.80, -20.79, 23816.21, 0.00, 0.00, 0.00
131, -187500.02, -187500.02, 187500.00, 187500.00, -7500.62, -117884.95, 4393.62, -17656.40, 0.00, 0.00, 0.00
132, -187500.02, -187500.02, 187500.00, 187500.00, -9282.10, -118754.30, 3282.29, 25315.14, 0.00, 0.00, 0.00
133, -187500.02, -187500.02, 187500.00, 187500.00, -12638.95, -122751.69, -388.12, 38514.98, 0.00, 0.00, 0.00
134, -187500.02, -187500.02, 187500.00, 187500.00, -8641.12, -119258.60, 3138.81, -13397.61, 0.00, 0.00, 0.00
135, -187500.02, -187500.02, 187500.00, 187500.00, -7955.79, -117618.88, 4438.97, 8420.89, 0.00, 0.00, 0.00
136, -187500.02, -187500.02, 187500.00, 187500.00, -12366.21, -122178.77, 81.56, 45309.76, 0.00, 0.00, 0.00
137, -187500.02, -187500.02, 187500.00, 187500.00, -10113.58, -120790.55, 1684.16, -1239.76, 0.00, 0.00, 0.00
138, -187500.02, -187500.02, 187500.00, 187500.00, -7186.49, -117141.94, 4994.34, -6946.79, 0.00, 0.00, 0.00
139, -187500.02, -187500.02, 187500.00, 187500.00, -11369.55, -120946.78, 1207.91, 42993.54, 0.10, -0.20, 0.96
140, -187500.02, -187500.02, 187500.00, 187500.00, -11519.49, -122065.22, 419.03, 15765.15, 0.00, 0.00, 0.00
141, -187500.02, -187500.02, 187500.00, 187500.00, -7271.02, -117548.85, 4705.44, -15696.15, 0.00, 0.00, 0.00
142, -187500.02, -187500.02, 187500.00, 187500.00, -10032.51, -119553.98, 2539.76, 32856.17, 0.00, 0.00, 0.00
143, -187500.02, -187500.02, 187500.00, 187500.00, -12399.74, -122730.02, -290.57, 31645.06, 0.00, 0.00, 0.00
144, -187500.02, -187500.02, 187500.00, 187500.00, -7972.82, -118534.41, 3831.67, -16865.49, 0.00, 0.00, 0.00
145, -187500.02, -187500.02, 187500.00, 187500.00, -8568.92, -118156.95, 3907.89, 16951.00, 0.00, 0.00, 0.00
146, -187500.02, -187500.02, 187500.00, 187500.00, -12593.33, -122592.90, -254.52, 42979.30, 0.00, 0.00, 0.00
147, -187500.02, -187500.02, 187500.00, 187500.00, -9340.10, -120045.72, 2417.77, -8253.76, 0.00, 0.00, 0.00
148, -187500.02, -187500.02, 187500.00, 187500.00, -7476.08, -117304.48, 4805.69, 119.83, 0.00, 0.00, 0.00
149, -187500.02, -187500.02, 187500.00, 187500.00, -11950.74, -121657.32, 565.48, 45222.29, 0.09, -0.20, 0.96
150, -187500.02, -187500.02, 187500.00, 187500.00, -10850.52, -121511.73, 989.80, 6909.15, 0.00, 0.00, 0.00
151, -187500.02, -187500.02, 187500.00, 187500.00, -7077.72, -117217.26, 4982.78, -12815.28, 0.00, 0.00, 0.00
152, -187500.02, -187500.02, 187500.00, 187500.00, -10677.74, -120204.99, 1913.31, 38464.91, 0.00, 0.00, 0.00
153, -187500.02, -187500.02, 187500.00, 187500.00, -12103.00, -122554.55, -79.35, 24846.71, 0.00, 0.00, 0.00
154, -187500.02, -187500.02, 187500.00, 187500.00, -7561.95, -118026.02, 4299.09, -17699.85, 0.00, 0.00, 0.00
155, -187500.02, -187500.02, 187500.00, 187500.00, -9163.83, -118712.48, 3360.63, 24194.82, 0.00, 0.00, 0.00
156, -187500.02, -187500.02, 187500.00, 187500.00, -12605.40, -122760.29, -365.45, 38915.59, 0.00, 0.00, 0.00
157, -187500.02, -187500.02, 187500.00, 187500.00, -8710.09, -119387.57, 3054.16, -13068.62, 0.00, 0.00, 0.00
158, -187500.02, -187500.02, 187500.00, 187500.00, -7899.20, -117635.13, 4466.95, 7375.76, 0.00, 0.00, 0.00
159, -187500.02, -187500.02, 187500.00, 187500.00, -12327.25, -122190.12, 100.94, 45602.70, 0.09, -0.21, 0.96
160, -187500.02, -187500.02, 187500.00, 187500.00, -10214.14, -120959.27, 1552.37, -97.81, 0.00, 0.00, 0.00
161, -187500.02, -187500.02, 187500.00, 187500.00, -7156.38, -117198.35, 4976.97, -8076.82, 0.00, 0.00, 0.00
162, -187500.02, -187500.02, 187500.00, 187500.00, -11278.22, -120910.51, 1268.75, 42400.07, 0.00, 0.00, 0.00
163, -187500.02, -187500.02, 187500.00, 187500.00, -11612.13, -122222.55, 291.73, 17228.61, 0.00, 0.00, 0.00
164, -187500.02, -187500.02, 187500.00, 187500.00, -7215.46, -117591.00, 4698.34, -17069.96, 0.00, 0.00, 0.00
165, -187500.02, -187500.02, 187500.00, 187500.00, -9776.76, -119320.00, 2783.49, 30652.15, 0.00, 0.00, 0.00
166, -187500.02, -187500.02, 187500.00, 187500.00, -12530.70, -122842.34, -385.46, 34177.45, 0.00, 0.00, 0.00
167, -187500.02, -187500.02, 187500.00, 187500.00, -8179.93, -118831.80, 3591.57, -16122.85, 0.00, 0.00, 0.00
168, -187500.02, -187500.02, 187500.00, 187500.00, -8302.11, -117977.35, 4126.82, 13736.29, 0.00, 0.00, 0.00
169, -187500.02, -187500.02, 187500.00, 187500.00, -12512.95, -122502.02, -146.45, 43926.72, 0.09, -0.21, 0.96
170, -187500.02, -187500.02, 187500.00, 187500.00, -9620.21, -120379.43, 2136.74, -5916.60, 0.00, 0.00, 0.00
171, -187500.02, -187500.02, 187500.00, 187500.00, -7383.09, -117329.94, 4838.44, -2176.46, 0.00, 0.00, 0.00
172, -187500.02, -187500.02, 187500.00, 187500.00, -11762.99, -121515.39, 734.81, 44745.13, 0.00, 0.00, 0.00
173, -187500.02, -187500.02, 187500.00, 187500.00, -11051.84, -121766.73, 778.76, 9605.48, 0.00, 0.00, 0.00
174, -187500.02, -187500.02, 187500.00, 187500.00, -7092.52, -117356.98, 4905.92, -14328.81, 0.00, 0.00, 0.00
175, -187500.02, -187500.02, 187500.00, 187500.00, -10442.82, -120036.30, 2117.40, 36597.61, 0.00, 0.00, 0.00
176, -187500.02, -187500.02, 187500.00, 187500.00, -12244.55, -122738.21, -225.55, 27815.00, 0.00, 0.00, 0.00
177, -187500.02, -187500.02, 187500.00, 187500.00, -7691.53, -118288.27, 4104.29, -17781.77, 0.00, 0.00, 0.00
178, -187500.02, -187500.02, 187500.00, 187500.00, -8878.81, -118516.21, 3600.53, 20900.54, 0.00, 0.00, 0.00
179, -187500.02, -187500.02, 187500.00, 187500.00, -12636.25, -122799.30, -377.50, 41106.69, 0.09, -0.21, 0.96
180, -187500.02, -187500.02, 187500.00, 187500.00, -8990.01, -119774.48, 2730.06, -11108.08, 0.00, 0.00, 0.00
181, -187500.02, -187500.02, 187500.00, 187500.00, -7624.78, -117483.52, 4668.01, 3367.31, 0.00, 0.00, 0.00
182, -187500.02, -187500.02, 187500.00, 187500.00, -12139.50, -121992.93, 312.50, 45656.97, 0.00, 0.00, 0.00
183, -187500.02, -187500.02, 187500.00, 187500.00, -10574.01, -121364.94, 1198.72, 3678.40, 0.00, 0.00, 0.00
184, -187500.02, -187500.02, 187500.00, 187500.00, -7099.88, -117294.44, 4950.24, -10649.78, 0.00, 0.00, 0.00
185, -187500.02, -187500.02, 187500.00, 187500.00, -10953.45, -120628.54, 1573.03, 40443.07, 0.00, 0.00, 0.00
186, -187500.02, -187500.02, 187500.00, 187500.00, -11856.62, -122477.81, 69.94, 21006.41, 0.00, 0.00, 0.00
187, -187500.02, -187500.02, 187500.00, 187500.00, -7371.54, -117882.85, 4477.12, -17682.44, 0.00, 0.00, 0.00
188, -187500.02, -187500.02, 187500.00, 187500.00, -9450.47, -119090.52, 3050.14, 27385.56, 0.00, 0.00, 0.00
189, -187500.02, -187500.02, 187500.00, 187500.00, -12550.46, -122882.71, -407.96, 36576.95, 0.10, -0.20, 0.96
190, -187500.02, -187500.02, 187500.00, 187500.00, -8415.61, -119174.22, 3303.86, -14840.02, 0.00, 0.00, 0.00
191, -187500.02, -187500.02, 187500.00, 187500.00, -8091.76, -117884.52, 4261.87, 10498.84, 0.00, 0.00, 0.00
192, -187500.02, -187500.02, 187500.00, 187500.00, -12431.84, -122452.09, -84.44, 44949.91, 0.00, 0.00, 0.00
193, -187500.02, -187500.02, 187500.00, 187500.00, -9895.54, -120749.38, 1807.59, -3240.02, 0.00, 0.00, 0.00
194, -187500.02, -187500.02, 187500.00, 187500.00, -7184.01, -117263.80, 4942.64, -5935.59, 0.00, 0.00, 0.00
195, -187500.02, -187500.02, 187500.00, 187500.00, -11488.35, -121239.77, 1005.54, 43594.53, 0.00, 0.00, 0.00
196, -187500.02, -187500.02, 187500.00, 187500.00, -11409.16, -122151.12, 419.90, 14222.37, 0.00, 0.00, 0.00
197, -187500.02, -187500.02, 187500.00, 187500.00, -7128.22, -117554.15, 4765.93, -16333.00, 0.00, 0.00, 0.00
198, -187500.02, -187500.02, 187500.00, 187500.00, -10004.95, -119649.63, 2508.96, 32881.80, 0.00, 0.00, 0.00
199, -187500.02, -187500.02, 187500.00, 187500.00, -12406.98, -122870.58, -357.47, 31531.98, 0.10, -0.21, 0.96
200, -187500.02, -187500.02, 187500.00, 187500.00, -7968.04, -118681.37, 3763.39, -16948.81, 0.00, 0.00, 0.00
201, -187500.02, -187500.02, 187500.00, 187500.00, -8535.19, -118285.85, 3856.10, 16840.68, 0.00, 0.00, 0.00
202, -187500.02, -187500.02, 187500.00, 187500.00, -12527.55, -122683.06, -269.11, 42334.56, 0.00, 0.00, 0.00
203, -187500.02, -187500.02, 187500.00, 187500.00, -9274.77, -120114.72, 2418.53, -8867.52, 0.00, 0.00, 0.00
204, -187500.02, -187500.02, 187500.00, 187500.00, -7480.01, -117444.48, 4738.64, 325.64, 0.00, 0.00, 0.00
205, -187500.02, -187500.02, 187500.00, 187500.00, -11962.03, -121830.23, 474.21, 45548.29, 0.00, 0.00, 0.00
206, -187500.02, -187500.02, 187500.00, 187500.00, -10861.34, -121700.82, 889.73, 7127.01, 0.00, 0.00, 0.00
207, -187500.02, -187500.02, 187500.00, 187500.00, -7060.07, -117385.91, 4907.97, -13236.77, 0.00, 0.00, 0.00
208, -187500.02, -187500.02, 187500.00, 187500.00, -10628.63, -120337.85, 1871.71, 38075.48, 0.00, 0.00, 0.00
209, -187500.02, -187500.02, 187500.00, 187500.00, -12100.09, -122735.33, -171.75, 25299.34, 0.09, -0.20, 0.95
210, -187500.02, -187500.02, 187500.00, 187500.00, -7533.30, -118192.13, 4223.74, -18085.60, 0.00, 0.00, 0.00
211, -187500.02, -187500.02, 187500.00, 187500.00, -9055.36, -118770.93, 3382.27, 23089.17, 0.00, 0.00, 0.00
212, -187500.02, -187500.02, 187500.00, 187500.00, -12608.22, -122905.80, -438.30, 39388.11, 0.00, 0.00, 0.00
213, -187500.02, -187500.02, 187500.00, 187500.00, -8756.56, -119608.63, 2911.27, -12833.57, 0.00, 0.00, 0.00
214, -187500.02, -187500.02, 187500.00, 187500.00, -7752.43, -117655.09, 4512.91, 5705.06, 0.00, 0.00, 0.00
215, -187500.02, -187500.02, 187500.00, 187500.00, -12225.15, -122197.19, 146.99, 45227.03, 0.00, 0.00, 0.00
216, -187500.02, -187500.02, 187500.00, 187500.00, -10299.84, -121166.81, 1411.18, 732.87, 0.00, 0.00, 0.00
217, -187500.02, -187500.02, 187500.00, 187500.00, -7136.69, -117344.51, 4905.05, -8738.24, 0.00, 0.00, 0.00
218, -187500.02, -187500.02, 187500.00, 187500.00, -11179.43, -120958.02, 1283.75, 41871.59, 0.00, 0.00, 0.00
219, -187500.02, -187500.02, 187500.00, 187500.00, -11651.96, -122399.24, 179.31, 17923.46, 0.10, -0.21, 0.96
220, -187500.02, -187500.02, 187500.00, 187500.00, -7245.52, -117790.09, 4572.16, -17416.61, 0.00, 0.00, 0.00
221, -187500.02, -187500.02, 187500.00, 187500.00, -9679.94, -119388.71, 2774.70, 29628.00, 0.00, 0.00, 0.00
222, -187500.02, -187500.02, 187500.00, 187500.00, -12449.36, -122900.66, -400.25, 33917.95, 0.00, 0.00, 0.00
223, -187500.02, -187500.02, 187500.00, 187500.00, -8155.30, -118936.89, 3528.87, -16338.77, 0.00, 0.00, 0.00
224, -187500.02, -187500.02, 187500.00, 187500.00, -8269.34, -118072.75, 4070.43, 13165.00, 0.00, 0.00, 0.00
225, -187500.02, -187500.02, 187500.00, 187500.00, -12479.51, -122595.88, -208.74, 43647.48, 0.00, 0.00, 0.00
226, -187500.02, -187500.02, 187500.00, 187500.00, -9575.11, -120466.58, 2077.89, -6287.61, 0.00, 0.00, 0.00
227, -187500.02, -187500.02, 187500.00, 187500.00, -7255.87, -117314.73, 4874.38, -3612.49, 0.00, 0.00, 0.00
228, -187500.02, -187500.02, 187500.00, 187500.00, -11691.79, -121515.26, 749.61, 44415.53, 0.00, 0.00, 0.00
229, -187500.02, -187500.02, 187500.00, 187500.00, -11184.23, -122002.10, 576.92, 11014.96, 0.09, -0.21, 0.96
230, -187500.02, -187500.02, 187500.00, 187500.00, -7098.40, -117526.01, 4781.08, -14971.00, 0.00, 0.00, 0.00
231, -187500.02, -187500.02, 187500.00, 187500.00, -10292.96, -120019.92, 2160.52, 35295.23, 0.00, 0.00, 0.00
232, -187500.02, -187500.02, 187500.00, 187500.00, -12227.25, -122820.35, -284.81, 28026.11, 0.00, 0.00, 0.00
233, -187500.02, -187500.02, 187500.00, 187500.00, -7731.18, -118454.67, 3973.27, -17737.25, 0.00, 0.00, 0.00
234, -187500.02, -187500.02, 187500.00, 187500.00, -8818.25, -118602.84, 3547.51, 20294.47, 0.00, 0.00, 0.00
235, -187500.02, -187500.02, 187500.00, 187500.00, -12526.25, -122817.40, -372.65, 40214.23, 0.00, 0.00, 0.00
236, -187500.02, -187500.02, 187500.00, 187500.00, -8916.80, -119799.89, 2721.55, -11647.49, 0.00, 0.00, 0.00
237, -187500.02, -187500.02, 187500.00, 187500.00, -7659.58, -117621.34, 4550.90, 3745.44, 0.00, 0.00, 0.00
238, -187500.02, -187500.02, 187500.00, 187500.00, -12138.65, -122124.05, 205.39, 45385.35, 0.00, 0.00, 0.00
239, -187500.02, -187500.02, 187500.00, 187500.00, -10468.44, -121381.45, 1199.46, 2717.91, 0.09, -0.21, 0.96
240, -187500.02, -187500.02, 187500.00, 187500.00, -7058.99, -117351.21, 4909.07, -10788.20, 0.00, 0.00, 0.00
241, -187500.02, -187500.02, 187500.00, 187500.00, -10978.71, -120763.37, 1463.01, 40497.85, 0.00, 0.00, 0.00
242, -187500.02, -187500.02, 187500.00, 187500.00, -11843.18, -122596.66, -20.52, 20802.30, 0.00, 0.00, 0.00
243, -187500.02, -187500.02, 187500.00, 187500.00, -7322.92, -117968.21, 4419.01, -17966.04, 0.00, 0.00, 0.00
244, -187500.02, -187500.02, 187500.00, 187500.00, -9413.79, -119174.58, 2992.25, 27039.40, 0.00, 0.00, 0.00
245, -187500.02, -187500.02, 187500.00, 187500.00, -12533.56, -122981.57, -477.52, 36202.94, 0.00, 0.00, 0.00
246, -187500.02, -187500.02, 187500.00, 187500.00, -8389.48, -119272.88, 3234.05, -15113.51, 0.00, 0.00, 0.00
247, -187500.02, -187500.02, 187500.00, 187500.00, -8047.43, -117968.23, 4202.46, 10305.79, 0.00, 0.00, 0.00
248, -187500.02, -187500.02, 187500.00, 187500.00, -12389.30, -122531.43, -140.66, 44571.39, 0.00, 0.00, 0.00
249, -187500.02, -187500.02, 187500.00, 187500.00, -9875.20, -120845.02, 1738.85, -3522.34, 0.09, -0.20, 0.96
250, -187500.02, -187500.02, 187500.00, 187500.00, -7218.14, -117431.57, 4809.40, -5518.56, 0.00, 0.00, 0.00
251, -187500.02, -187500.02, 187500.00, 187500.00, -11471.74, -121384.43, 899.39, 43286.86, 0.00, 0.00, 0.00
252, -187500.02, -187500.02, 187500.00, 187500.00, -11256.36, -122132.07, 464.98, 12668.57, 0.00, 0.00, 0.00
253, -187500.02, -187500.02, 187500.00, 187500.00, -7105.60, -117624.98, 4714.68, -15972.00, 0.00, 0.00, 0.00
254, -187500.02, -187500.02, 187500.00, 187500.00, -10121.07, -119900.81, 2294.99, 33695.77, 0.00, 0.00, 0.00
255, -187500.02, -187500.02, 187500.00, 187500.00, -12292.32, -122917.96, -369.07, 29759.16, 0.00, 0.00, 0.00
0, -187500.02, -187500.02, 187500.00, 187500.00, -7799.17, -118613.06, 3848.19, -17899.39, 0.00, 0.00, 0.00
1, -187500.02, -187500.02, 187500.00, 187500.00, -8589.28, -118425.69, 3739.09, 17624.15, 0.00, 0.00, 0.00
2, -187500.02, -187500.02, 187500.00, 187500.00, -12584.23, -122866.33, -416.77, 42264.11, 0.00, 0.00, 0.00
3, -187500.02, -187500.02, 187500.00, 187500.00, -9223.60, -120205.69, 2360.12, -9380.96, 0.09, -0.21, 0.96
4, -187500.02, -187500.02, 187500.00, 187500.00, -7433.52, -117529.54, 4676.41, 157.04, 0.00, 0.00, 0.00
5, -187500.02, -187500.02, 187500.00, 187500.00, -11921.24, -121913.36, 411.12, 44932.73, 0.00, 0.00, 0.00
6, -187500.02, -187500.02, 187500.00, 187500.00, -10778.08, -121723.02, 878.22, 6139.00, 0.00, 0.00, 0.00
7, -187500.02, -187500.02, 187500.00, 187500.00, -7058.17, -117484.81, 4813.49, -12719.77, 0.00, 0.00, 0.00
8, -187500.02, -187500.02, 187500.00, 187500.00, -10668.13, -120507.05, 1716.12, 38262.45, 0.00, 0.00, 0.00
9, -187500.02, -187500.02, 187500.00, 187500.00, -11937.49, -122691.45, -119.58, 23066.87, 0.00, 0.00, 0.00
10, -187500.02, -187500.02, 187500.00, 187500.00, -7449.72, -118173.69, 4237.85, -18074.94, 0.00, 0.00, 0.00
11, -187500.02, -187500.02, 187500.00, 187500.00, -9224.90, -119055.24, 3118.09, 24945.22, 0.00, 0.00, 0.00
12, -187500.02, -187500.02, 187500.00, 187500.00, -12547.73, -123017.45, -519.54, 37810.72, 0.00, 0.00, 0.00
13, -187500.02, -187500.02, 187500.00, 187500.00, -8555.46, -119514.05, 3012.41, -14214.46, 0.09, -0.20, 0.96
14, -187500.02, -187500.02, 187500.00, 187500.00, -7877.94, -117875.45, 4313.91, 7544.58, 0.00, 0.00, 0.00
15, -187500.02, -187500.02, 187500.00, 187500.00, -12308.03, -122457.13, -63.08, 45023.43, 0.00, 0.00, 0.00
16, -187500.02, -187500.02, 187500.00, 187500.00, -10099.08, -121127.32, 1485.25, -1211.96, 0.00, 0.00, 0.00
17, -187500.02, -187500.02, 187500.00, 187500.00, -7099.94, -117411.48, 4860.74, -8145.11, 0.00, 0.00, 0.00
18, -187500.02, -187500.02, 187500.00, 187500.00, -11274.04, -121185.05, 1098.97, 42308.90, 0.00, 0.00, 0.00
19, -187500.02, -187500.02, 187500.00, 187500.00, -11576.10, -122474.84, 146.56, 16620.18, 0.00, 0.00, 0.00
20, -187500.02, -187500.02, 187500.00, 187500.00, -7179.56, -117849.41, 4543.33, -17305.12, 0.00, 0.00, 0.00
21, -187500.02, -187500.02, 187500.00, 187500.00, -9750.14, -119598.10, 2608.22, 30461.45, 0.00, 0.00, 0.00
22, -187500.02, -187500.02, 187500.00, 187500.00, -12435.33, -123049.52, -496.30, 33146.41, 0.00, 0.00, 0.00
23, -187500.02, -187500.02, 187500.00, 187500.00, -8094.51, -119025.65, 3485.02, -16766.98, 0.09, -0.20, 0.96
24, -187500.02, -187500.02, 187500.00, 187500.00, -8298.06, -118256.88, 3932.90, 13862.53, 0.00, 0.00, 0.00
25, -187500.02, -187500.02, 187500.00, 187500.00, -12484.41, -122776.56, -336.91, 43567.19, 0.00, 0.00, 0.00
26, -187500.02, -187500.02, 187500.00, 187500.00, -9539.03, -120598.54, 1995.99, -6655.28, 0.00, 0.00, 0.00
27, -187500.02, -187500.02, 187500.00, 187500.00, -7300.66, -117532.91, 4709.47, -3021.22, 0.00, 0.00, 0.00
28, -187500.02, -187500.02, 187500.00, 187500.00, -11687.41, -121716.04, 604.55, 44178.31, 0.00, 0.00, 0.00
29, -187500.02, -187500.02, 187500.00, 187500.00, -11014.40, -122010.26, 609.00, 9450.12, 0.00, 0.00, 0.00
30, -187500.02, -187500.02, 187500.00, 187500.00, -7012.79, -117563.20, 4773.01, -15206.09, 0.00, 0.00, 0.00
31, -187500.02, -187500.02, 187500.00, 187500.00, -10330.28, -120187.59, 2031.35, 35602.39, 0.00, 0.00, 0.00
32, -187500.02, -187500.02, 187500.00, 187500.00, -12212.52, -122962.51, -385.39, 27762.88, 0.00, 0.00, 0.00
33, -187500.02, -187500.02, 187500.00, 187500.00, -7649.82, -118525.69, 3937.44, -18420.79, 0.10, -0.20, 0.98
34, -187500.02, -187500.02, 187500.00, 187500.00, -8722.08, -118627.95, 3548.76, 19457.60, 0.00, 0.00, 0.00
35, -187500.02, -187500.02, 187500.00, 187500.00, -12546.08, -122944.00, -472.83, 40676.95, 0.00, 0.00, 0.00
36, -187500.02, -187500.02, 187500.00, 187500.00, -8990.34, -120023.16, 2539.36, -11211.46, 0.00, 0.00, 0.00
37, -187500.02, -187500.02, 187500.00, 187500.00, -7558.26, -117682.49, 4527.55, 2532.47, 0.00, 0.00, 0.00
38, -187500.02, -187500.02, 187500.00, 187500.00, -12046.38, -122153.48, 203.07, 45034.63, 0.00, 0.00, 0.00
39, -187500.02, -187500.02, 187500.00, 187500.00, -10537.77, -121575.91, 1040.67, 3390.18, 0.00, 0.00, 0.00
40, -187500.02, -187500.02, 187500.00, 187500.00, -7046.63, -117496.14, 4804.40, -11475.74, 0.00, 0.00, 0.00
41, -187500.02, -187500.02, 187500.00, 187500.00, -10856.24, -120782.68, 1471.75, 39590.97, 0.00, 0.00, 0.00
42, -187500.02, -187500.02, 187500.00, 187500.00, -11790.95, -122656.45, -57.35, 20634.79, 0.09, -0.21, 0.96
43, -187500.02, -187500.02, 187500.00, 187500.00, -7323.39, -118083.19, 4331.28, -18202.72, 0.00, 0.00, 0.00
44, -187500.02, -187500.02, 187500.00, 187500.00, -9386.66, -119275.61, 2919.63, 26612.61, 0.00, 0.00, 0.00
45, -187500.02, -187500.02, 187500.00, 187500.00, -12464.58, -123038.34, -510.94, 35701.17, 0.00, 0.00, 0.00
46, -187500.02, -187500.02, 187500.00, 187500.00, -8321.13, -119312.65, 3216.10, -15691.35, 0.00, 0.00, 0.00
47, -187500.02, -187500.02, 187500.00, 187500.00, -7993.86, -118008.47, 4187.46, 9618.69, 0.00, 0.00, 0.00
48, -187500.02, -187500.02, 187500.00, 187500.00, -12359.58, -122588.49, -171.68, 44181.39, 0.00, 0.00, 0.00
49, -187500.02, -187500.02, 187500.00, 187500.00, -9839.42, -120903.35, 1702.76, -3890.23, 0.00, 0.00, 0.00
50, -187500.02, -187500.02, 187500.00, 187500.00, -7105.98, -117398.66, 4856.68, -6786.64, 0.00, 0.00, 0.00
51, -187500.02, -187500.02, 187500.00, 187500.00, -11395.68, -121349.96, 941.68, 42750.26, 0.00, 0.00, 0.00
52, -187500.02, -187500.02, 187500.00, 187500.00, -11358.96, -122293.34, 324.57, 13623.70, 0.09, -0.21, 0.96
53, -187500.02, -187500.02, 187500.00, 187500.00, -7114.11, -117748.47, 4622.92, -16554.17, 0.00, 0.00, 0.00
54, -187500.02, -187500.02, 187500.00, 187500.00, -9989.89, -119870.19, 2346.35, 32652.43, 0.00, 0.00, 0.00
55, -187500.02, -187500.02, 187500.00, 187500.00, -12339.08, -123048.74, -476.45, 30789.93, 0.00, 0.00, 0.00
56, -187500.02, -187500.02, 187500.00, 187500.00, -7902.64, -118851.35, 3648.83, -17624.93, 0.00, 0.00, 0.00
57, -187500.02, -187500.02, 187500.00, 187500.00, -8488.79, -118478.13, 3719.75, 16339.75, 0.00, 0.00, 0.00
58, -187500.02, -187500.02, 187500.00, 187500.00, -12474.26, -122871.24, -403.67, 41844.99, 0.00, 0.00, 0.00
59, -187500.02, -187500.02, 187500.00, 187500.00, -9206.19, -120290.13, 2297.67, -9526.69, 0.00, 0.00, 0.00
60, -187500.02, -187500.02, 187500.00, 187500.00, -7365.19, -117562.28, 4670.15, -945.57, 0.00, 0.00, 0.00
61, -187500.02, -187500.02, 187500.00, 187500.00, -11861.38, -121940.18, 406.20, 44755.12, 0.00, 0.00, 0.00
62, -187500.02, -187500.02, 187500.00, 187500.00, -10839.84, -121892.51, 742.01, 7016.01, 0.09, -0.21, 0.96
63, -187500.02, -187500.02, 187500.00, 187500.00, -6976.18, -117528.64, 4807.48, -14373.31, 0.00, 0.00, 0.00
64, -187500.02, -187500.02, 187500.00, 187500.00, -10494.21, -120401.11, 1842.81, 36853.22, 0.00, 0.00, 0.00
65, -187500.02, -187500.02, 187500.00, 187500.00, -12083.40, -122906.43, -302.60, 25305.59, 0.00, 0.00, 0.00
66, -187500.02, -187500.02, 187500.00, 187500.00, -7507.79, -118385.74, 4082.48, -18812.77, 0.00, 0.00, 0.00
67, -187500.02, -187500.02, 187500.00, 187500.00, -8898.36, -118829.96, 3372.16, 21540.71, 0.00, 0.00, 0.00
68, -187500.02, -187500.02, 187500.00, 187500.00, -12537.12, -123025.20, -512.99, 39293.52, 0.00, 0.00, 0.00
69, -187500.02, -187500.02, 187500.00, 187500.00, -8795.28, -119862.73, 2715.78, -12755.96, 0.00, 0.00, 0.00
70, -187500.02, -187500.02, 187500.00, 187500.00, -7673.71, -117815.05, 4415.23, 4499.12, 0.00, 0.00, 0.00
71, -187500.02, -187500.02, 187500.00, 187500.00, -12115.05, -122311.60, 88.58, 44511.35, 0.00, 0.00, 0.00
72, -187500.02, -187500.02, 187500.00, 187500.00, -10267.27, -121358.79, 1281.25, 583.51, 0.08, -0.21, 0.96
73, -187500.02, -187500.02, 187500.00, 187500.00, -7072.45, -117514.34, 4804.02, -9777.68, 0.00, 0.00, 0.00
74, -187500.02, -187500.02, 187500.00, 187500.00, -11082.20, -121082.73, 1223.67, 41082.75, 0.00, 0.00, 0.00
75, -187500.02, -187500.02, 187500.00, 187500.00, -11657.40, -122632.10, 15.18, 18285.13, 0.00, 0.00, 0.00
76, -187500.02, -187500.02, 187500.00, 187500.00, -7191.56, -117988.55, 4448.15, -18449.82, 0.00, 0.00, 0.00
77, -187500.02, -187500.02, 187500.00, 187500.00, -9509.91, -119440.81, 2789.74, 27926.80, 0.00, 0.00, 0.00
78, -187500.02, -187500.02, 187500.00, 187500.00, -12445.85, -123099.93, -529.42, 34564.18, 0.00, 0.00, 0.00
79, -187500.02, -187500.02, 187500.00, 187500.00, -8207.09, -119245.03, 3307.92, -16398.49, 0.00, 0.00, 0.00
80, -187500.02, -187500.02, 187500.00, 187500.00, -8076.80, -118137.03, 4087.22, 10908.12, 0.00, 0.00, 0.00
81, -187500.02, -187500.02, 187500.00, 187500.00, -12397.19, -122715.56, -254.88, 43759.66, 0.00, 0.00, 0.00
82, -187500.02, -187500.02, 187500.00, 187500.00, -9717.85, -120853.55, 1787.18, -5136.68, 0.09, -0.21, 0.96
83, -187500.02, -187500.02, 187500.00, 187500.00, -7149.23, -117498.49, 4793.44, -5652.44, 0.00, 0.00, 0.00
84, -187500.02, -187500.02, 187500.00, 187500.00, -11483.01, -121541.30, 804.95, 43097.98, 0.00, 0.00, 0.00
85, -187500.02, -187500.02, 187500.00, 187500.00, -11227.30, -122262.74, 403.47, 11921.26, 0.00, 0.00, 0.00
86, -187500.02, -187500.02, 187500.00, 187500.00, -7096.41, -117788.86, 4622.18, -15896.49, 0.00, 0.00, 0.00
87, -187500.02, -187500.02, 187500.00, 187500.00, -10131.24, -120111.61, 2163.72, 33774.91, 0.00, 0.00, 0.00
88, -187500.02, -187500.02, 187500.00, 187500.00, -12193.10, -123019.51, -390.57, 28371.54, 0.00, 0.00, 0.00
89, -187500.02, -187500.02, 187500.00, 187500.00, -7714.19, -118694.04, 3838.89, -18526.67, 0.00, 0.00, 0.00
90, -187500.02, -187500.02, 187500.00, 187500.00, -8623.12, -118640.44, 3604.76, 18052.23, 0.00, 0.00, 0.00
91, -187500.02, -187500.02, 187500.00, 187500.00, -12505.71, -122993.02, -459.15, 41049.87, 0.00, 0.00, 0.00
92, -187500.02, -187500.02, 187500.00, 187500.00, -9059.92, -120207.32, 2431.33, -10785.95, 0.09, -0.21, 0.96
93, -187500.02, -187500.02, 187500.00, 187500.00, -7443.49, -117690.67, 4595.56, 584.30, 0.00, 0.00, 0.00
94, -187500.02, -187500.02, 187500.00, 187500.00, -11924.63, -122107.64, 312.77, 44312.00, 0.00, 0.00, 0.00
95, -187500.02, -187500.02, 187500.00, 187500.00, -10588.31, -121710.99, 978.54, 4192.34, 0.00, 0.00, 0.00
96, -187500.02, -187500.02, 187500.00, 187500.00, -6968.92, -117528.73, 4852.85, -12949.24, 0.00, 0.00, 0.00
97, -187500.02, -187500.02, 187500.00, 187500.00, -10703.13, -120692.80, 1629.87, 38326.94, 0.00, 0.00, 0.00
98, -187500.02, -187500.02, 187500.00, 187500.00, -11894.84, -122823.55, -144.88, 22074.49, 0.00, 0.00, 0.00
99, -187500.02, -187500.02, 187500.00, 187500.00, -7368.10, -118260.38, 4252.44, -18695.91, 0.00, 0.00, 0.00
100, -187500.02, -187500.02, 187500.00, 187500.00, -9194.57, -119186.78, 3089.64, 24655.63, 0.00, 0.00, 0.00
101, -187500.02, -187500.02, 187500.00, 187500.00, -12498.51, -123132.11, -526.07, 36897.68, 0.00, 0.00, 0.00
102, -187500.02, -187500.02, 187500.00, 187500.00, -8495.32, -119614.04, 3021.49, -14959.89, 0.09, -0.20, 0.96
103, -187500.02, -187500.02, 187500.00, 187500.00, -7850.80, -118016.23, 4280.45, 7406.03, 0.00, 0.00, 0.00
104, -187500.02, -187500.02, 187500.00, 187500.00, -12250.14, -122572.73, -73.47, 44252.41, 0.00, 0.00, 0.00
105, -187500.02, -187500.02, 187500.00, 187500.00, -10000.08, -121182.59, 1526.91, -2387.28, 0.00, 0.00, 0.00
106, -187500.02, -187500.02, 187500.00, 187500.00, -7056.22, -117512.33, 4858.31, -8657.08, 0.00, 0.00, 0.00
107, -187500.02, -187500.02, 187500.00, 187500.00, -11227.48, -121298.98, 1084.26, 41731.84, 0.00, 0.00, 0.00
108, -187500.02, -187500.02, 187500.00, 187500.00, -11478.89, -122532.30, 182.99, 15624.85, 0.00, 0.00, 0.00
109, -187500.02, -187500.02, 187500.00, 187500.00, -7126.54, -117937.32, 4549.72, -17789.46, 0.00, 0.00, 0.00
110, -187500.02, -187500.02, 187500.00, 187500.00, -9753.94, -119758.01, 2552.37, 30210.35, 0.00, 0.00, 0.00
111, -187500.02, -187500.02, 187500.00, 187500.00, -12398.20, -123193.47, -531.66, 32564.23, 0.00, 0.00, 0.00
112, -187500.02, -187500.02, 187500.00, 187500.00, -8010.19, -119123.08, 3494.72, -17563.58, 0.09, -0.20, 0.96
113, -187500.02, -187500.02, 187500.00, 187500.00, -8201.53, -118325.48, 3968.91, 12868.12, 0.00, 0.00, 0.00
114, -187500.02, -187500.02, 187500.00, 187500.00, -12428.51, -122869.68, -325.08, 42925.92, 0.00, 0.00, 0.00
115, -187500.02, -187500.02, 187500.00, 187500.00, -9509.71, -120724.47, 1977.91, -7200.59, 0.00, 0.00, 0.00
116, -187500.02, -187500.02, 187500.00, 187500.00, -7188.72, -117575.34, 4770.67, -4317.78, 0.00, 0.00, 0.00
117, -187500.02, -187500.02, 187500.00, 187500.00, -11589.31, -121742.86, 675.89, 43405.16, 0.00, 0.00, 0.00
118, -187500.02, -187500.02, 187500.00, 187500.00, -11053.29, -122179.15, 545.94, 9682.35, 0.00, 0.00, 0.00
119, -187500.02, -187500.02, 187500.00, 187500.00, -7034.54, -117756.07, 4697.08, -15631.78, 0.00, 0.00, 0.00
120, -187500.02, -187500.02, 187500.00, 187500.00, -10250.60, -120290.65, 2041.18, 34719.25, 0.00, 0.00, 0.00
121, -187500.02, -187500.02, 187500.00, 187500.00, -12118.24, -123028.47, -346.32, 26806.67, 0.00, 0.00, 0.00
122, -187500.02, -187500.02, 187500.00, 187500.00, -7604.53, -118624.23, 3942.85, -19024.93, 0.10, -0.20, 0.97
123, -187500.02, -187500.02, 187500.00, 187500.00, -8721.76, -118782.93, 3505.49, 19128.22, 0.00, 0.00, 0.00
124, -187500.02, -187500.02, 187500.00, 187500.00, -12505.60, -123078.02, -492.68, 40106.32, 0.00, 0.00, 0.00
125, -187500.02, -187500.02, 187500.00, 187500.00, -8921.63, -120125.63, 2545.37, -12004.85, 0.00, 0.00, 0.00
126, -187500.02, -187500.02, 187500.00, 187500.00, -7473.55, -117757.39, 4556.72, 1416.97, 0.00, 0.00, 0.00
127, -187500.02, -187500.02, 187500.00, 187500.00, -11993.28, -122249.55, 208.30, 44452.66, 0.00, 0.00, 0.00
128, -187500.02, -187500.02, 187500.00, 187500.00, -10534.29, -121740.74, 980.26, 3347.26, 0.00, 0.00, 0.00
129, -187500.02, -187500.02, 187500.00, 187500.00, -6965.61, -117597.33, 4809.49, -12650.91, 0.00, 0.00, 0.00
130, -187500.02, -187500.02, 187500.00, 187500.00, -10752.06, -120832.90, 1519.36, 38672.50, 0.00, 0.00, 0.00
131, -187500.02, -187500.02, 187500.00, 187500.00, -11864.84, -122893.10, -188.40, 21455.06, 0.00, 0.00, 0.00
132, -187500.02, -187500.02, 187500.00, 187500.00, -7335.31, -118313.37, 4218.47, -18943.57, 0.09, -0.21, 0.96
133, -187500.02, -187500.02, 187500.00, 187500.00, -9201.54, -119286.30, 3009.62, 24759.05, 0.00, 0.00, 0.00
134, -187500.02, -187500.02, 187500.00, 187500.00, -12465.77, -123199.48, -578.60, 36472.12, 0.00, 0.00, 0.00
135, -187500.02, -187500.02, 187500.00, 187500.00, -8436.13, -119639.74, 3000.01, -15468.86, 0.00, 0.00, 0.00
136, -187500.02, -187500.02, 187500.00, 187500.00, -7817.41, -118056.41, 4239.03, 7103.07, 0.00, 0.00, 0.00
137, -187500.02, -187500.02, 187500.00, 187500.00, -12197.59, -122590.15, -97.21, 43604.52, 0.00, 0.00, 0.00
138, -187500.02, -187500.02, 187500.00, 187500.00, -9917.27, -121153.05, 1540.73, -3077.41, 0.00, 0.00, 0.00
139, -187500.02, -187500.02, 187500.00, 187500.00, -7056.24, -117557.99, 4796.71, -8350.03, 0.00, 0.00, 0.00
140, -187500.02, -187500.02, 187500.00, 187500.00, -11270.71, -121409.87, 968.55, 41838.89, 0.00, 0.00, 0.00
141, -187500.02, -187500.02, 187500.00, 187500.00, -11436.14, -122567.44, 145.76, 14902.82, 0.00, 0.00, 0.00
142, -187500.02, -187500.02, 187500.00, 187500.00, -7062.75, -117935.65, 4543.06, -18285.25, 0.09, -0.21, 0.95
143, -187500.02, -187500.02, 187500.00, 187500.00, -9714.78, -119771.08, 2528.23, 29920.92, 0.00, 0.00, 0.00
144, -187500.02, -187500.02, 187500.00, 187500.00, -12378.75, -123220.60, -567.49, 32258.24, 0.00, 0.00, 0.00
145, -187500.02, -187500.02, 187500.00, 187500.00, -8012.03, -119176.48, 3436.27, -17609.66, 0.00, 0.00, 0.00
146, -187500.02, -187500.02, 187500.00, 187500.00, -8229.26, -118423.90, 3875.32, 13040.03, 0.00, 0.00, 0.00
147, -187500.02, -187500.02, 187500.00, 187500.00, -12385.53, -122907.26, -353.29, 42085.34, 0.00, 0.00, 0.00
148, -187500.02, -187500.02, 187500.00, 187500.00, -9415.65, -120682.52, 2022.52, -8073.58, 0.00, 0.00, 0.00
149, -187500.02, -187500.02, 187500.00, 187500.00, -7261.01, -117697.15, 4657.30, -3251.87, 0.00, 0.00, 0.00
150, -187500.02, -187500.02, 187500.00, 187500.00, -11660.17, -121912.20, 529.80, 43377.87, 0.00, 0.00, 0.00
151, -187500.02, -187500.02, 187500.00, 187500.00, -10894.15, -122106.70, 631.39, 7721.39, 0.00, 0.00, 0.00
152, -187500.02, -187500.02, 187500.00, 187500.00, -6949.38, -117704.82, 4751.06, -15838.09, 0.09, -0.21, 0.96
153, -187500.02, -187500.02, 187500.00, 187500.00, -10305.65, -120391.97, 1955.84, 35110.48, 0.00, 0.00, 0.00
154, -187500.02, -187500.02, 187500.00, 187500.00, -12094.28, -123073.53, -368.74, 26094.34, 0.00, 0.00, 0.00
155, -187500.02, -187500.02, 187500.00, 187500.00, -7556.43, -118637.91, 3947.85, -19323.44, 0.00, 0.00, 0.00
156, -187500.02, -187500.02, 187500.00, 187500.00, -8752.25, -118881.88, 3430.86, 19456.28, 0.00, 0.00, 0.00
157, -187500.02, -187500.02, 187500.00, 187500.00, -12529.18, -123191.75, -573.08, 40015.05, 0.00, 0.00, 0.00
158, -187500.02, -187500.02, 187500.00, 187500.00, -8911.26, -120211.52, 2493.18, -12207.11, 0.00, 0.00, 0.00
159, -187500.02, -187500.02, 187500.00, 187500.00, -7474.58, -117854.98, 4493.21, 1452.48, 0.00, 0.00, 0.00
160, -187500.02, -187500.02, 187500.00, 187500.00, -11976.15, -122329.77, 164.22, 44066.44, 0.00, 0.00, 0.00
161, -187500.02, -187500.02, 187500.00, 187500.00, -10478.92, -121767.18, 986.81, 2616.23, 0.00, 0.00, 0.00
162, -187500.02, -187500.02, 187500.00, 187500.00, -6955.88, -117658.33, 4779.14, -12614.21, 0.09, -0.21, 0.96
163, -187500.02, -187500.02, 187500.00, 187500.00, -10759.59, -120925.77, 1464.69, 38504.57, 0.00, 0.00, 0.00
164, -187500.02, -187500.02, 187500.00, 187500.00, -11765.82, -122869.91, -130.51, 20141.85, 0.00, 0.00, 0.00
165, -187500.02, -187500.02, 187500.00, 187500.00, -7282.18, -118299.45, 4260.15, -19188.84, 0.00, 0.00, 0.00
166, -187500.02, -187500.02, 187500.00, 187500.00, -9264.82, -119403.84, 2928.82, 25279.13, 0.00, 0.00, 0.00
167, -187500.02, -187500.02, 187500.00, 187500.00, -12437.78, -123250.55, -584.83, 35616.25, 0.00, 0.00, 0.00
168, -187500.02, -187500.02, 187500.00, 187500.00, -8358.77, -119621.68, 3058.28, -15997.59, 0.00, 0.00, 0.00
169, -187500.02, -187500.02, 187500.00, 187500.00, -7894.68, -118200.13, 4143.54, 8010.55, 0.00, 0.00, 0.00
170, -187500.02, -187500.02, 187500.00, 187500.00, -12255.77, -122758.30, -204.54, 43546.58, 0.00, 0.00, 0.00
171, -187500.02, -187500.02, 187500.00, 187500.00, -9852.51, -121201.68, 1549.71, -3937.91, 0.00, 0.00, 0.00
172, -187500.02, -187500.02, 187500.00, 187500.00, -7009.06, -117606.27, 4797.94, -8599.59, 0.09, -0.21, 0.96
173, -187500.02, -187500.02, 187500.00, 187500.00, -11256.09, -121487.92, 942.86, 41571.02, 0.00, 0.00, 0.00
174, -187500.02, -187500.02, 187500.00, 187500.00, -11394.45, -122618.31, 146.45, 14334.69, 0.00, 0.00, 0.00
175, -187500.02, -187500.02, 187500.00, 187500.00, -7054.70, -118016.16, 4511.77, -18208.11, 0.00, 0.00, 0.00
176, -187500.02, -187500.02, 187500.00, 187500.00, -9747.30, -119906.76, 2445.91, 30128.81, 0.00, 0.00, 0.00
177, -187500.02, -187500.02, 187500.00, 187500.00, -12329.54, -123278.12, -575.45, 31313.59, 0.00, 0.00, 0.00
178, -187500.02, -187500.02, 187500.00, 187500.00, -7947.30, -119193.04, 3455.56, -18095.23, 0.00, 0.00, 0.00
179, -187500.02, -187500.02, 187500.00, 187500.00, -8266.39, -118544.35, 3789.02, 13550.72, 0.00, 0.00, 0.00
180, -187500.02, -187500.02, 187500.00, 187500.00, -12388.05, -123016.04, -426.07, 41763.12, 0.00, 0.00, 0.00
181, -187500.02, -187500.02, 187500.00, 187500.00, -9357.24, -120719.11, 2013.09, -8642.50, 0.00, 0.00, 0.00
182, -187500.02, -187500.02, 187500.00, 187500.00, -7288.86, -117816.69, 4565.86, -2812.50, 0.09, -0.21, 0.95
183, -187500.02, -187500.02, 187500.00, 187500.00, -11685.87, -122054.31, 422.74, 43257.31, 0.00, 0.00, 0.00
184, -187500.02, -187500.02, 187500.00, 187500.00, -10812.68, -122134.76, 629.05, 6800.90, 0.00, 0.00, 0.00
185, -187500.02, -187500.02, 187500.00, 187500.00, -6958.59, -117806.02, 4668.83, -15227.04, 0.00, 0.00, 0.00
186, -187500.02, -187500.02, 187500.00, 187500.00, -10405.52, -120615.77, 1761.36, 35741.64, 0.00, 0.00, 0.00
187, -187500.02, -187500.02, 187500.00, 187500.00, -12012.72, -123130.50, -401.10, 24652.41, 0.00, 0.00, 0.00
188, -187500.02, -187500.02, 187500.00, 187500.00, -7465.17, -118642.05, 3951.70, -19594.63, 0.00, 0.00, 0.00
189, -187500.02, -187500.02, 187500.00, 187500.00, -8835.78, -119069.57, 3259.76, 20514.90, 0.00, 0.00, 0.00
190, -187500.02, -187500.02, 187500.00, 187500.00, -12498.22, -123292.35, -648.69, 38849.43, 0.00, 0.00, 0.00
191, -187500.02, -187500.02, 187500.00, 187500.00, -8764.48, -120157.09, 2559.07, -13323.74, 0.00, 0.00, 0.00
192, -187500.02, -187500.02, 187500.00, 187500.00, -7555.47, -118019.80, 4347.41, 2920.34, 0.09, -0.20, 0.96
193, -187500.02, -187500.02, 187500.00, 187500.00, -12035.09, -122526.31, 7.33, 43849.94, 0.00, 0.00, 0.00
194, -187500.02, -187500.02, 187500.00, 187500.00, -10313.03, -121714.79, 1067.99, 728.00, 0.00, 0.00, 0.00
195, -187500.02, -187500.02, 187500.00, 187500.00, -6971.04, -117749.14, 4714.00, -11543.36, 0.00, 0.00, 0.00
196, -187500.02, -187500.02, 187500.00, 187500.00, -10889.14, -121182.91, 1255.23, 39242.62, 0.00, 0.00, 0.00
197, -187500.02, -187500.02, 187500.00, 187500.00, -11605.63, -122843.59, -61.98, 17838.88, 0.00, 0.00, 0.00
198, -187500.02, -187500.02, 187500.00, 187500.00, -7206.40, -118295.59, 4292.00, -18817.51, 0.00, 0.00, 0.00
199, -187500.02, -187500.02, 187500.00, 187500.00, -9474.66, -119731.02, 2655.43, 27313.65, 0.00, 0.00, 0.00
200, -187500.02, -187500.02, 187500.00, 187500.00, -12391.74, -123375.27, -649.03, 33837.48, 0.00, 0.00, 0.00
201, -187500.02, -187500.02, 187500.00, 187500.00, -8157.25, -119524.18, 3188.90, -17298.44, 0.00, 0.00, 0.00
202, -187500.02, -187500.02, 187500.00, 187500.00, -7994.75, -118382.48, 4000.87, 9680.96, 0.09, -0.21, 0.95
203, -187500.02, -187500.02, 187500.00, 187500.00, -12299.74, -122938.21, -327.14, 42853.97, 0.00, 0.00, 0.00
204, -187500.02, -187500.02, 187500.00, 187500.00, -9656.51, -121108.72, 1682.59, -5857.52, 0.00, 0.00, 0.00
205, -187500.02, -187500.02, 187500.00, 187500.00, -7056.53, -117720.22, 4722.01, -7023.90, 0.00, 0.00, 0.00
206, -187500.02, -187500.02, 187500.00, 187500.00, -11401.92, -121759.42, 733.72, 42236.95, 0.00, 0.00, 0.00
207, -187500.02, -187500.02, 187500.00, 187500.00, -11245.86, -122597.41, 221.57, 12068.82, 0.00, 0.00, 0.00
208, -187500.02, -187500.02, 187500.00, 187500.00, -6995.05, -118029.81, 4540.06, -17721.49, 0.00, 0.00, 0.00
209, -187500.02, -187500.02, 187500.00, 187500.00, -9904.10, -120176.36, 2238.17, 31566.63, 0.00, 0.00, 0.00
210, -187500.02, -187500.02, 187500.00, 187500.00, -12224.82, -123314.50, -547.98, 29189.07, 0.00, 0.00, 0.00
211, -187500.02, -187500.02, 187500.00, 187500.00, -7800.02, -119117.27, 3575.99, -18698.15, 0.00, 0.00, 0.00
212, -187500.02, -187500.02, 187500.00, 187500.00, -8453.32, -118818.92, 3580.08, 15793.47, 0.09, -0.20, 0.96
213, -187500.02, -187500.02, 187500.00, 187500.00, -12391.14, -123175.63, -502.11, 40298.72, 0.00, 0.00, 0.00
214, -187500.02, -187500.02, 187500.00, 187500.00, -9082.92, -120536.23, 2250.33, -11044.35, 0.00, 0.00, 0.00
215, -187500.02, -187500.02, 187500.00, 187500.00, -7346.84, -117916.94, 4517.82, -1150.96, 0.00, 0.00, 0.00
216, -187500.02, -187500.02, 187500.00, 187500.00, -11808.92, -122289.41, 267.35, 43530.07, 0.00, 0.00, 0.00
217, -187500.02, -187500.02, 187500.00, 187500.00, -10643.81, -122078.74, 758.24, 4651.06, 0.00, 0.00, 0.00
218, -187500.02, -187500.02, 187500.00, 187500.00, -6918.62, -117827.30, 4710.70, -14607.38, 0.00, 0.00, 0.00
219, -187500.02, -187500.02, 187500.00, 187500.00, -10541.78, -120852.80, 1610.33, 36753.17, 0.00, 0.00, 0.00
220, -187500.02, -187500.02, 187500.00, 187500.00, -11948.79, -123197.55, -376.96, 23184.32, 0.00, 0.00, 0.00
221, -187500.02, -187500.02, 187500.00, 187500.00, -7382.07, -118649.41, 4020.81, -19832.97, 0.00, 0.00, 0.00
222, -187500.02, -187500.02, 187500.00, 187500.00, -8925.68, -119261.77, 3149.00, 21573.54, 0.09, -0.20, 0.96
223, -187500.02, -187500.02, 187500.00, 187500.00, -12455.04, -123379.19, -654.37, 37540.63, 0.00, 0.00, 0.00
224, -187500.02, -187500.02, 187500.00, 187500.00, -8603.95, -120081.21, 2692.98, -14587.31, 0.00, 0.00, 0.00
225, -187500.02, -187500.02, 187500.00, 187500.00, -7603.88, -118137.80, 4285.14, 4028.41, 0.00, 0.00, 0.00
226, -187500.02, -187500.02, 187500.00, 187500.00, -12072.87, -122676.14, -75.59, 43590.82, 0.00, 0.00, 0.00
227, -187500.02, -187500.02, 187500.00, 187500.00, -10175.61, -121672.14, 1168.24, -812.55, 0.00, 0.00, 0.00
228, -187500.02, -187500.02, 187500.00, 187500.00, -6970.88, -117812.06, 4702.31, -10961.12, 0.00, 0.00, 0.00
229, -187500.02, -187500.02, 187500.00, 187500.00, -10970.68, -121366.68, 1136.59, 39721.35, 0.00, 0.00, 0.00
230, -187500.02, -187500.02, 187500.00, 187500.00, -11522.57, -122877.08, -32.88, 16633.14, 0.00, 0.00, 0.00
231, -187500.02, -187500.02, 187500.00, 187500.00, -7138.14, -118307.13, 4330.52, -19012.08, 0.00, 0.00, 0.00
232, -187500.02, -187500.02, 187500.00, 187500.00, -9517.98, -119860.33, 2584.96, 27712.45, 0.09, -0.20, 0.96
233, -187500.02, -187500.02, 187500.00, 187500.00, -12332.22, -123420.61, -631.64, 32790.23, 0.00, 0.00, 0.00
234, -187500.02, -187500.02, 187500.00, 187500.00, -8060.02, -119503.46, 3261.07, -17848.61, 0.00, 0.00, 0.00
235, -187500.02, -187500.02, 187500.00, 187500.00, -8047.14, -118509.64, 3930.35, 10511.67, 0.00, 0.00, 0.00
236, -187500.02, -187500.02, 187500.00, 187500.00, -12324.24, -123067.00, -388.61, 42465.16, 0.00, 0.00, 0.00
237, -187500.02, -187500.02, 187500.00, 187500.00, -9572.31, -121116.19, 1736.60, -6737.02, 0.00, 0.00, 0.00
238, -187500.02, -187500.02, 187500.00, 187500.00, -7097.71, -117843.84, 4661.08, -6140.94, 0.00, 0.00, 0.00
239, -187500.02, -187500.02, 187500.00, 187500.00, -11447.65, -121925.56, 637.05, 42185.45, 0.00, 0.00, 0.00
240, -187500.02, -187500.02, 187500.00, 187500.00, -11084.92, -122538.88, 335.97, 10123.73, 0.00, 0.00, 0.00
241, -187500.02, -187500.02, 187500.00, 187500.00, -6967.22, -118054.18, 4559.00, -17065.65, 0.00, 0.00, 0.00
242, -187500.02, -187500.02, 187500.00, 187500.00, -10052.92, -120424.73, 2057.75, 32812.54, 0.09, -0.20, 0.95
243, -187500.02, -187500.02, 187500.00, 187500.00, -12109.48, -123327.87, -488.43, 27111.90, 0.00, 0.00, 0.00
244, -187500.02, -187500.02, 187500.00, 187500.00, -7652.37, -119030.91, 3713.85, -19342.80, 0.00, 0.00, 0.00
245, -187500.02, -187500.02, 187500.00, 187500.00, -8588.61, -119027.30, 3435.08, 17494.42, 0.00, 0.00, 0.00
246, -187500.02, -187500.02, 187500.00, 187500.00, -12389.97, -123306.99, -555.46, 39278.03, 0.00, 0.00, 0.00
247, -187500.02, -187500.02, 187500.00, 187500.00, -8893.33, -120437.84, 2407.01, -12573.01, 0.00, 0.00, 0.00
248, -187500.02, -187500.02, 187500.00, 187500.00, -7389.46, -118018.57, 4472.56, 45.31, 0.00, 0.00, 0.00
249, -187500.02, -187500.02, 187500.00, 187500.00, -11892.40, -122480.34, 148.73, 43655.17, 0.00, 0.00, 0.00
250, -187500.02, -187500.02, 187500.00, 187500.00, -10532.32, -122069.78, 826.01, 3207.45, 0.00, 0.00, 0.00
251, -187500.02, -187500.02, 187500.00, 187500.00, -6884.07, -117858.13, 4727.68, -14339.58, 0.00, 0.00, 0.00
252, -187500.02, -187500.02, 187500.00, 187500.00, -10591.06, -120985.56, 1535.36, 36925.86, 0.08, -0.21, 0.96
253, -187500.02, -187500.02, 187500.00, 187500.00, -11817.72, -123144.23, -273.12, 21244.01, 0.00, 0.00, 0.00
254, -187500.02, -187500.02, 187500.00, 187500.00, -7294.27, -118588.98, 4115.81, -19899.69, 0.00, 0.00, 0.00
255, -187500.02, -187500.02, 187500.00, 187500.00, -9063.12, -119450.69, 3012.21, 23051.33, 0.00, 0.00, 0.00
0, -187500.02, -187500.02, 187500.00, 187500.00, -12422.58, -123441.82, -649.94, 36176.54, 0.00, 0.00, 0.00
1, -187500.02, -187500.02, 187500.00, 187500.00, -8467.00, -119995.38, 2834.49, -15531.24, 0.00, 0.00, 0.00
2, -187500.02, -187500.02, 187500.00, 187500.00, -7757.11, -118348.95, 4144.44, 6125.76, 0.00, 0.00, 0.00
3, -187500.02, -187500.02, 187500.00, 187500.00, -12123.76, -122857.39, -168.22, 42750.57, 0.00, 0.00, 0.00
4, -187500.02, -187500.02, 187500.00, 187500.00, -9890.80, -121467.09, 1426.20, -3672.86, 0.00, 0.00, 0.00
5, -187500.02, -187500.02, 187500.00, 187500.00, -7006.91, -117860.52, 4692.93, -9229.93, 0.00, 0.00, 0.00
6, -187500.02, -187500.02, 187500.00, 187500.00, -11174.06, -121660.36, 910.86, 40776.64, 0.09, -0.21, 0.96
7, -187500.02, -187500.02, 187500.00, 187500.00, -11344.78, -122804.39, 94.30, 13842.32, 0.00, 0.00, 0.00
8, -187500.02, -187500.02, 187500.00, 187500.00, -7031.32, -118227.45, 4437.78, -18798.00, 0.00, 0.00, 0.00
9, -187500.02, -187500.02, 187500.00, 187500.00, -9709.49, -120109.58, 2381.00, 29488.90, 0.00, 0.00, 0.00
10, -187500.02, -187500.02, 187500.00, 187500.00, -12293.35, -123489.05, -649.47, 31076.43, 0.00, 0.00, 0.00
11, -187500.02, -187500.02, 187500.00, 187500.00, -7910.33, -119408.73, 3381.62, -18713.06, 0.00, 0.00, 0.00
12, -187500.02, -187500.02, 187500.00, 187500.00, -8169.47, -118690.20, 3782.92, 12270.30, 0.00, 0.00, 0.00
13, -187500.02, -187500.02, 187500.00, 187500.00, -12353.96, -123214.92, -485.52, 41638.93, 0.00, 0.00, 0.00
14, -187500.02, -187500.02, 187500.00, 187500.00, -9381.12, -121008.23, 1874.48, -8563.96, 0.00, 0.00, 0.00
15, -187500.02, -187500.02, 187500.00, 187500.00, -7138.50, -117934.15, 4593.93, -4772.72, 0.09, -0.20, 0.96
16, -187500.02, -187500.02, 187500.00, 187500.00, -11538.55, -122120.74, 484.54, 42377.41, 0.00, 0.00, 0.00
17, -187500.02, -187500.02, 187500.00, 187500.00, -10907.79, -122452.02, 452.62, 7836.19, 0.00, 0.00, 0.00
18, -187500.02, -187500.02, 187500.00, 187500.00, -6935.86, -118058.89, 4567.18, -16366.71, 0.00, 0.00, 0.00
19, -187500.02, -187500.02, 187500.00, 187500.00, -10219.24, -120673.60, 1836.58, 34137.44, 0.00, 0.00, 0.00
20, -187500.02, -187500.02, 187500.00, 187500.00, -12014.98, -123346.69, -483.56, 25185.52, 0.00, 0.00, 0.00
21, -187500.02, -187500.02, 187500.00, 187500.00, -7504.64, -118934.21, 3812.22, -20099.34, 0.00, 0.00, 0.00
22, -187500.02, -187500.02, 187500.00, 187500.00, -8677.19, -119161.75, 3309.02, 18605.17, 0.00, 0.00, 0.00
23, -187500.02, -187500.02, 187500.00, 187500.00, -12397.86, -123397.96, -630.61, 38549.18, 0.00, 0.00, 0.00
24, -187500.02, -187500.02, 187500.00, 187500.00, -8780.64, -120385.42, 2458.87, -13502.13, 0.00, 0.00, 0.00
25, -187500.02, -187500.02, 187500.00, 187500.00, -7437.83, -118118.82, 4373.01, 993.62, 0.09, -0.20, 0.96
26, -187500.02, -187500.02, 187500.00, 187500.00, -11929.89, -122607.67, 33.64, 43281.65, 0.00, 0.00, 0.00
27, -187500.02, -187500.02, 187500.00, 187500.00, -10374.52, -121985.29, 910.81, 1477.96, 0.00, 0.00, 0.00
28, -187500.02, -187500.02, 187500.00, 187500.00, -6883.51, -117896.84, 4679.74, -13413.33, 0.00, 0.00, 0.00
29, -187500.02, -187500.02, 187500.00, 187500.00, -10723.63, -121203.98, 1326.08, 37916.92, 0.00, 0.00, 0.00
30, -187500.02, -187500.02, 187500.00, 187500.00, -11755.65, -123190.65, -309.46, 19884.09, 0.00, 0.00, 0.00
31, -187500.02, -187500.02, 187500.00, 187500.00, -7220.55, -118588.72, 4112.30, -20102.60, 0.00, 0.00, 0.00
32, -187500.02, -187500.02, 187500.00, 187500.00, -9128.92, -119602.08, 2862.86, 23845.98, 0.00, 0.00, 0.00
33, -187500.02, -187500.02, 187500.00, 187500.00, -12370.37, -123491.73, -702.78, 35058.71, 0.00, 0.00, 0.00
34, -187500.02, -187500.02, 187500.00, 187500.00, -8344.51, -119929.24, 2876.76, -16510.94, 0.00, 0.00, 0.00
35, -187500.02, -187500.02, 187500.00, 187500.00, -7789.05, -118424.81, 4046.25, 6764.44, 0.09, -0.20, 0.96
36, -187500.02, -187500.02, 187500.00, 187500.00, -12157.23, -122970.06, -290.77, 42738.52, 0.00, 0.00, 0.00
37, -187500.02, -187500.02, 187500.00, 187500.00, -9832.51, -121492.26, 1391.17, -4286.19, 0.00, 0.00, 0.00
38, -187500.02, -187500.02, 187500.00, 187500.00, -6971.64, -117897.42, 4646.26, -9374.37, 0.00, 0.00, 0.00
39, -187500.02, -187500.02, 187500.00, 187500.00, -11155.31, -121716.11, 846.93, 40577.27, 0.00, 0.00, 0.00
40, -187500.02, -187500.02, 187500.00, 187500.00, -11290.67, -122822.45, 69.60, 13343.45, 0.00, 0.00, 0.00
41, -187500.02, -187500.02, 187500.00, 187500.00, -6998.08, -118258.09, 4398.96, -18840.64, 0.00, 0.00, 0.00
42, -187500.02, -187500.02, 187500.00, 187500.00, -9718.52, -120187.77, 2300.46, 29589.22, 0.00, 0.00, 0.00
43, -187500.02, -187500.02, 187500.00, 187500.00, -12266.57, -123536.21, -696.57, 30622.87, 0.00, 0.00, 0.00
44, -187500.02, -187500.02, 187500.00, 187500.00, -7876.49, -119441.52, 3346.35, -18830.14, 0.00, 0.00, 0.00
45, -187500.02, -187500.02, 187500.00, 187500.00, -8195.62, -118789.44, 3687.88, 12689.76, 0.09, -0.20, 0.96
46, -187500.02, -187500.02, 187500.00, 187500.00, -12330.58, -123272.21, -533.78, 41044.26, 0.00, 0.00, 0.00
47, -187500.02, -187500.02, 187500.00, 187500.00, -9297.79, -120982.59, 1900.37, -9321.06, 0.00, 0.00, 0.00
48, -187500.02, -187500.02, 187500.00, 187500.00, -7172.38, -118023.58, 4507.74, -3996.58, 0.00, 0.00, 0.00
49, -187500.02, -187500.02, 187500.00, 187500.00, -11582.61, -122254.12, 367.15, 42452.60, 0.00, 0.00, 0.00
50, -187500.02, -187500.02, 187500.00, 187500.00, -10806.00, -122435.19, 480.65, 6651.43, 0.00, 0.00, 0.00
51, -187500.02, -187500.02, 187500.00, 187500.00, -6895.42, -118074.34, 4560.94, -16302.51, 0.00, 0.00, 0.00
52, -187500.02, -187500.02, 187500.00, 187500.00, -10258.27, -120785.88, 1747.55, 34456.26, 0.00, 0.00, 0.00
53, -187500.02, -187500.02, 187500.00, 187500.00, -11953.96, -123370.25, -483.33, 24333.03, 0.00, 0.00, 0.00
54, -187500.02, -187500.02, 187500.00, 187500.00, -7441.57, -118931.05, 3829.19, -20261.54, 0.00, 0.00, 0.00
55, -187500.02, -187500.02, 187500.00, 187500.00, -8729.16, -119278.16, 3213.87, 19247.64, 0.09, -0.20, 0.96
56, -187500.02, -187500.02, 187500.00, 187500.00, -12403.92, -123494.32, -697.42, 38263.93, 0.00, 0.00, 0.00
57, -187500.02, -187500.02, 187500.00, 187500.00, -8736.45, -120425.63, 2449.89, -13729.31, 0.00, 0.00, 0.00
58, -187500.02, -187500.02, 187500.00, 187500.00, -7490.94, -118260.17, 4269.79, 1889.30, 0.00, 0.00, 0.00
59, -187500.02, -187500.02, 187500.00, 187500.00, -11977.54, -122772.96, -82.46, 43375.55, 0.00, 0.00, 0.00
60, -187500.02, -187500.02, 187500.00, 187500.00, -10308.33, -122037.37, 904.15, 751.31, 0.00, 0.00, 0.00
61, -187500.02, -187500.02, 187500.00, 187500.00, -6865.56, -117982.30, 4638.70, -13057.24, 0.00, 0.00, 0.00
62, -187500.02, -187500.02, 187500.00, 187500.00, -10746.88, -121344.76, 1237.68, 38220.18, 0.00, 0.00, 0.00
63, -187500.02, -187500.02, 187500.00, 187500.00, -11692.62, -123248.30, -312.92, 19172.50, 0.00, 0.00, 0.00
64, -187500.02, -187500.02, 187500.00, 187500.00, -7181.44, -118651.41, 4101.61, -19997.41, 0.00, 0.00, 0.00
65, -187500.02, -187500.02, 187500.00, 187500.00, -9173.54, -119760.20, 2764.78, 24471.49, 0.09, -0.20, 0.95
66, -187500.02, -187500.02, 187500.00, 187500.00, -12317.04, -123562.27, -711.05, 34286.37, 0.00, 0.00, 0.00
67, -187500.02, -187500.02, 187500.00, 187500.00, -8249.89, -119923.66, 2936.48, -16999.60, 0.00, 0.00, 0.00
68, -187500.02, -187500.02, 187500.00, 187500.00, -7840.39, -118558.77, 3969.04, 7613.52, 0.00, 0.00, 0.00
69, -187500.02, -187500.02, 187500.00, 187500.00, -12178.84, -123101.18, -359.48, 42556.16, 0.00, 0.00, 0.00
70, -187500.02, -187500.02, 187500.00, 187500.00, -9735.64, -121491.70, 1446.31, -5193.03, 0.00, 0.00, 0.00
71, -187500.02, -187500.02, 187500.00, 187500.00, -6938.99, -117933.25, 4657.34, -9264.71, 0.00, 0.00, 0.00
72, -187500.02, -187500.02, 187500.00, 187500.00, -11201.67, -121839.38, 776.99, 41102.15, 0.00, 0.00, 0.00
73, -187500.02, -187500.02, 187500.00, 187500.00, -11361.08, -123002.90, -48.88, 14028.38, 0.00, 0.00, 0.00
74, -187500.02, -187500.02, 187500.00, 187500.00, -6979.60, -118375.77, 4347.77, -19291.12, 0.00, 0.00, 0.00
75, -187500.02, -187500.02, 187500.00, 187500.00, -9607.67, -120186.16, 2357.80, 28797.23, 0.09, -0.20, 0.96
76, -187500.02, -187500.02, 187500.00, 187500.00, -12300.54, -123657.13, -762.06, 31548.59, 0.00, 0.00, 0.00
77, -187500.02, -187500.02, 187500.00, 187500.00, -7944.82, -119634.18, 3221.71, -18528.25, 0.00, 0.00, 0.00
78, -187500.02, -187500.02, 187500.00, 187500.00, -8091.69, -118806.58, 3730.39, 11506.95, 0.00, 0.00, 0.00
79, -187500.02, -187500.02, 187500.00, 187500.00, -12298.06, -123326.13, -538.41, 41629.43, 0.00, 0.00, 0.00
80, -187500.02, -187500.02, 187500.00, 187500.00, -9416.54, -121219.12, 1729.00, -8183.17, 0.00, 0.00, 0.00
81, -187500.02, -187500.02, 187500.00, 187500.00, -7111.61, -118104.53, 4493.39, -5221.48, 0.00, 0.00, 0.00
82, -187500.02, -187500.02, 187500.00, 187500.00, -11471.41, -122242.11, 429.06, 42072.48, 0.00, 0.00, 0.00
83, -187500.02, -187500.02, 187500.00, 187500.00, -10887.98, -122615.32, 355.66, 8014.46, 0.00, 0.00, 0.00
84, -187500.02, -187500.02, 187500.00, 187500.00, -6914.02, -118224.43, 4475.49, -16751.98, 0.00, 0.00, 0.00
85, -187500.02, -187500.02, 187500.00, 187500.00, -10157.17, -120794.39, 1790.84, 33658.24, 0.09, -0.20, 0.96
86, -187500.02, -187500.02, 187500.00, 187500.00, -11998.51, -123510.86, -574.69, 25486.69, 0.00, 0.00, 0.00
87, -187500.02, -187500.02, 187500.00, 187500.00, -7502.79, -119127.53, 3692.60, -19945.49, 0.00, 0.00, 0.00
88, -187500.02, -187500.02, 187500.00, 187500.00, -8643.64, -119325.23, 3220.51, 18336.57, 0.00, 0.00, 0.00
89, -187500.02, -187500.02, 187500.00, 187500.00, -12360.33, -123555.12, -713.29, 38381.77, 0.00, 0.00, 0.00
90, -187500.02, -187500.02, 187500.00, 187500.00, -8743.38, -120543.89, 2375.50, -13624.68, 0.00, 0.00, 0.00
91, -187500.02, -187500.02, 187500.00, 187500.00, -7374.27, -118243.98, 4318.16, 673.77, 0.00, 0.00, 0.00
92, -187500.02, -187500.02, 187500.00, 187500.00, -11879.71, -122728.75, -20.07, 43056.59, 0.00, 0.00, 0.00
93, -187500.02, -187500.02, 187500.00, 187500.00, -10356.88, -122138.27, 826.52, 1428.75, 0.00, 0.00, 0.00
94, -187500.02, -187500.02, 187500.00, 187500.00, -6841.38, -118035.69, 4611.48, -13673.72, 0.00, 0.00, 0.00
95, -187500.02, -187500.02, 187500.00, 187500.00, -10648.42, -121304.32, 1291.77, 37558.13, 0.09, -0.20, 0.96
96, -187500.02, -187500.02, 187500.00, 187500.00, -11694.70, -123289.70, -344.80, 19612.18, 0.00, 0.00, 0.00
97, -187500.02, -187500.02, 187500.00, 187500.00, -7209.49, -118735.52, 4035.18, -19989.75, 0.00, 0.00, 0.00
98, -187500.02, -187500.02, 187500.00, 187500.00, -9139.87, -119787.73, 2756.28, 24106.22, 0.00, 0.00, 0.00
99, -187500.02, -187500.02, 187500.00, 187500.00, -12335.84, -123641.33, -769.41, 34823.75, 0.00, 0.00, 0.00
100, -187500.02, -187500.02, 187500.00, 187500.00, -8294.84, -120057.30, 2833.22, -16674.54, 0.00, 0.00, 0.00
101, -187500.02, -187500.02, 187500.00, 187500.00, -7794.10, -118608.50, 3950.36, 6986.08, 0.00, 0.00, 0.00
102, -187500.02, -187500.02, 187500.00, 187500.00, -12140.06, -123144.90, -377.34, 42606.58, 0.00, 0.00, 0.00
103, -187500.02, -187500.02, 187500.00, 187500.00, -9777.14, -121625.85, 1342.74, -4496.59, 0.00, 0.00, 0.00
104, -187500.02, -187500.02, 187500.00, 187500.00, -6976.96, -118088.89, 4541.11, -8792.13, 0.00, 0.00, 0.00
105, -187500.02, -187500.02, 187500.00, 187500.00, -11198.94, -121963.79, 695.45, 40923.02, 0.09, -0.20, 0.96
106, -187500.02, -187500.02, 187500.00, 187500.00, -11259.04, -123007.59, -20.18, 12991.91, 0.00, 0.00, 0.00
107, -187500.02, -187500.02, 187500.00, 187500.00, -6938.65, -118407.45, 4340.10, -19032.44, 0.00, 0.00, 0.00
108, -187500.02, -187500.02, 187500.00, 187500.00, -9663.98, -120334.14, 2241.79, 29449.23, 0.00, 0.00, 0.00
109, -187500.02, -187500.02, 187500.00, 187500.00, -12212.77, -123673.78, -745.45, 30211.04, 0.00, 0.00, 0.00
110, -187500.02, -187500.02, 187500.00, 187500.00, -7836.77, -119587.30, 3289.08, -18933.04, 0.00, 0.00, 0.00
111, -187500.02, -187500.02, 187500.00, 187500.00, -8190.64, -118977.23, 3592.71, 12959.16, 0.00, 0.00, 0.00
112, -187500.02, -187500.02, 187500.00, 187500.00, -12291.49, -123433.33, -602.02, 40827.16, 0.00, 0.00, 0.00
113, -187500.02, -187500.02, 187500.00, 187500.00, -9241.51, -121111.07, 1860.47, -9682.37, 0.00, 0.00, 0.00
114, -187500.02, -187500.02, 187500.00, 187500.00, -7156.58, -118184.95, 4431.43, -3953.67, 0.00, 0.00, 0.00
115, -187500.02, -187500.02, 187500.00, 187500.00, -11566.11, -122423.05, 283.04, 42457.43, 0.09, -0.20, 0.95
116, -187500.02, -187500.02, 187500.00, 187500.00, -10764.04, -122581.03, 417.46, 6473.20, 0.00, 0.00, 0.00
117, -187500.02, -187500.02, 187500.00, 187500.00, -6823.12, -118174.72, 4538.59, -17005.45, 0.00, 0.00, 0.00
118, -187500.02, -187500.02, 187500.00, 187500.00, -10179.41, -120853.71, 1745.98, 33959.81, 0.00, 0.00, 0.00
119, -187500.02, -187500.02, 187500.00, 187500.00, -11991.55, -123556.51, -601.69, 25255.44, 0.00, 0.00, 0.00
120, -187500.02, -187500.02, 187500.00, 187500.00, -7455.76, -119129.85, 3708.58, -20397.46, 0.00, 0.00, 0.00
121, -187500.02, -187500.02, 187500.00, 187500.00, -8585.28, -119301.80, 3255.42, 17892.06, 0.00, 0.00, 0.00
122, -187500.02, -187500.02, 187500.00, 187500.00, -12375.07, -123600.27, -747.04, 38794.43, 0.00, 0.00, 0.00
123, -187500.02, -187500.02, 187500.00, 187500.00, -8792.42, -120652.05, 2286.87, -13340.26, 0.00, 0.00, 0.00
124, -187500.02, -187500.02, 187500.00, 187500.00, -7291.00, -118228.74, 4349.94, -392.54, 0.00, 0.00, 0.00
125, -187500.02, -187500.02, 187500.00, 187500.00, -11790.19, -122673.61, 42.45, 42682.00, 0.09, -0.21, 0.96
126, -187500.02, -187500.02, 187500.00, 187500.00, -10395.26, -122209.88, 769.32, 1995.92, 0.00, 0.00, 0.00
127, -187500.02, -187500.02, 187500.00, 187500.00, -6862.12, -118112.23, 4556.05, -13776.52, 0.00, 0.00, 0.00
128, -187500.02, -187500.02, 187500.00, 187500.00, -10625.21, -121338.05, 1276.15, 37422.38, 0.00, 0.00, 0.00
129, -187500.02, -187500.02, 187500.00, 187500.00, -11721.23, -123381.18, -414.33, 20138.83, 0.00, 0.00, 0.00
130, -187500.02, -187500.02, 187500.00, 187500.00, -7222.45, -118832.82, 3967.14, -20129.76, 0.00, 0.00, 0.00
131, -187500.02, -187500.02, 187500.00, 187500.00, -9073.02, -119800.65, 2767.37, 23456.28, 0.00, 0.00, 0.00
132, -187500.02, -187500.02, 187500.00, 187500.00, -12309.24, -123681.01, -790.40, 35014.21, 0.00, 0.00, 0.00
133, -187500.02, -187500.02, 187500.00, 187500.00, -8298.13, -120133.72, 2776.67, -16635.80, 0.00, 0.00, 0.00
134, -187500.02, -187500.02, 187500.00, 187500.00, -7721.61, -118600.95, 3974.94, 6135.51, 0.00, 0.00, 0.00
135, -187500.02, -187500.02, 187500.00, 187500.00, -12103.27, -123147.76, -367.02, 42591.54, 0.09, -0.20, 0.96
136, -187500.02, -187500.02, 187500.00, 187500.00, -9818.96, -121720.35, 1267.93, -4064.46, 0.00, 0.00, 0.00
137, -187500.02, -187500.02, 187500.00, 187500.00, -6901.48, -118077.65, 4573.01, -9900.24, 0.00, 0.00, 0.00
138, -187500.02, -187500.02, 187500.00, 187500.00, -11092.66, -121884.70, 782.51, 40344.25, 0.00, 0.00, 0.00
139, -187500.02, -187500.02, 187500.00, 187500.00, -11332.20, -123108.87, -108.00, 14083.74, 0.00, 0.00, 0.00
140, -187500.02, -187500.02, 187500.00, 187500.00, -6963.33, -118503.70, 4270.66, -19373.26, 0.00, 0.00, 0.00
141, -187500.02, -187500.02, 187500.00, 187500.00, -9546.74, -120272.70, 2321.65, 28394.07, 0.00, 0.00, 0.00
142, -187500.02, -187500.02, 187500.00, 187500.00, -12199.81, -123688.11, -746.08, 30670.12, 0.00, 0.00, 0.00
143, -187500.02, -187500.02, 187500.00, 187500.00, -7886.90, -119683.84, 3216.84, -18744.87, 0.00, 0.00, 0.00
144, -187500.02, -187500.02, 187500.00, 187500.00, -8131.21, -118973.73, 3616.60, 12214.27, 0.00, 0.00, 0.00
145, -187500.02, -187500.02, 187500.00, 187500.00, -12275.69, -123459.74, -614.70, 41226.99, 0.09, -0.20, 0.95
146, -187500.02, -187500.02, 187500.00, 187500.00, -9308.70, -121248.06, 1750.59, -9032.83, 0.00, 0.00, 0.00
147, -187500.02, -187500.02, 187500.00, 187500.00, -7092.03, -118204.70, 4444.22, -5036.45, 0.00, 0.00, 0.00
148, -187500.02, -187500.02, 187500.00, 187500.00, -11483.01, -122390.57, 341.02, 42192.67, 0.00, 0.00, 0.00
149, -187500.02, -187500.02, 187500.00, 187500.00, -10851.10, -122725.80, 307.96, 7738.62, 0.00, 0.00, 0.00
150, -187500.02, -187500.02, 187500.00, 187500.00, -6853.18, -118306.46, 4452.49, -17128.72, 0.00, 0.00, 0.00
151, -187500.02, -187500.02, 187500.00, 187500.00, -10118.79, -120888.18, 1752.18, 33489.57, 0.00, 0.00, 0.00
152, -187500.02, -187500.02, 187500.00, 187500.00, -12033.91, -123690.17, -693.66, 26168.86, 0.00, 0.00, 0.00
153, -187500.02, -187500.02, 187500.00, 187500.00, -7483.72, -119280.28, 3606.05, -20435.71, 0.00, 0.00, 0.00
154, -187500.02, -187500.02, 187500.00, 187500.00, -8455.58, -119279.70, 3314.85, 16692.19, 0.00, 0.00, 0.00
155, -187500.02, -187500.02, 187500.00, 187500.00, -12372.18, -123671.28, -785.46, 39664.15, 0.09, -0.20, 0.96
156, -187500.02, -187500.02, 187500.00, 187500.00, -8930.21, -120905.92, 2085.35, -12162.17, 0.00, 0.00, 0.00
157, -187500.02, -187500.02, 187500.00, 187500.00, -7243.82, -118326.15, 4308.50, -1353.76, 0.00, 0.00, 0.00
158, -187500.02, -187500.02, 187500.00, 187500.00, -11723.58, -122715.50, 43.45, 42778.22, 0.00, 0.00, 0.00
159, -187500.02, -187500.02, 187500.00, 187500.00, -10508.99, -122441.94, 590.49, 3410.90, 0.00, 0.00, 0.00
160, -187500.02, -187500.02, 187500.00, 187500.00, -6835.88, -118240.86, 4486.13, -14714.33, 0.00, 0.00, 0.00
161, -187500.02, -187500.02, 187500.00, 187500.00, -10471.86, -121297.88, 1356.28, 36431.93, 0.00, 0.00, 0.00
162, -187500.02, -187500.02, 187500.00, 187500.00, -11766.76, -123516.12, -509.93, 21437.51, 0.00, 0.00, 0.00
163, -187500.02, -187500.02, 187500.00, 187500.00, -7264.45, -119001.78, 3847.03, -20275.91, 0.00, 0.00, 0.00
164, -187500.02, -187500.02, 187500.00, 187500.00, -8936.56, -119774.57, 2828.48, 22065.02, 0.00, 0.00, 0.00
165, -187500.02, -187500.02, 187500.00, 187500.00, -12306.58, -123760.82, -841.23, 35984.95, 0.09, -0.20, 0.96
166, -187500.02, -187500.02, 187500.00, 187500.00, -8382.22, -120340.49, 2613.66, -16069.47, 0.00, 0.00, 0.00
167, -187500.02, -187500.02, 187500.00, 187500.00, -7558.06, -118555.23, 4051.86, 4173.96, 0.00, 0.00, 0.00
168, -187500.02, -187500.02, 187500.00, 187500.00, -12025.51, -123126.34, -334.67, 43062.49, 0.00, 0.00, 0.00
169, -187500.02, -187500.02, 187500.00, 187500.00, -10013.29, -122011.59, 1008.02, -1999.01, 0.00, 0.00, 0.00
170, -187500.02, -187500.02, 187500.00, 187500.00, -6811.56, -118132.59, 4552.74, -11911.71, 0.00, 0.00, 0.00
171, -187500.02, -187500.02, 187500.00, 187500.00, -10863.91, -121720.71, 950.13, 39090.45, 0.00, 0.00, 0.00
172, -187500.02, -187500.02, 187500.00, 187500.00, -11491.34, -123318.99, -306.93, 16670.98, 0.00, 0.00, 0.00
173, -187500.02, -187500.02, 187500.00, 187500.00, -7040.55, -118715.48, 4088.96, -19853.65, 0.00, 0.00, 0.00
174, -187500.02, -187500.02, 187500.00, 187500.00, -9316.92, -120141.98, 2454.74, 26297.77, 0.00, 0.00, 0.00
175, -187500.02, -187500.02, 187500.00, 187500.00, -12248.04, -123785.34, -848.61, 32729.26, 0.09, -0.20, 0.95
176, -187500.02, -187500.02, 187500.00, 187500.00, -8053.11, -119972.91, 2949.27, -17925.47, 0.00, 0.00, 0.00
177, -187500.02, -187500.02, 187500.00, 187500.00, -7915.60, -118877.23, 3716.85, 9458.12, 0.00, 0.00, 0.00
178, -187500.02, -187500.02, 187500.00, 187500.00, -12187.67, -123410.39, -588.14, 42049.15, 0.00, 0.00, 0.00
179, -187500.02, -187500.02, 187500.00, 187500.00, -9533.51, -121559.71, 1437.46, -6760.46, 0.00, 0.00, 0.00
180, -187500.02, -187500.02, 187500.00, 187500.00, -6987.16, -118230.78, 4418.60, -7351.96, 0.00, 0.00, 0.00
181, -187500.02, -187500.02, 187500.00, 187500.00, -11283.58, -122240.70, 455.60, 41371.13, 0.00, 0.00, 0.00
182, -187500.02, -187500.02, 187500.00, 187500.00, -11036.15, -122963.94, 45.60, 10454.78, 0.00, 0.00, 0.00
183, -187500.02, -187500.02, 187500.00, 187500.00, -6864.20, -118443.39, 4308.77, -18316.54, 0.00, 0.00, 0.00
184, -187500.02, -187500.02, 187500.00, 187500.00, -9848.29, -120679.23, 1925.94, 31300.46, 0.00, 0.00, 0.00
185, -187500.02, -187500.02, 187500.00, 187500.00, -12109.30, -123778.34, -818.99, 28377.19, 0.09, -0.21, 0.95
186, -187500.02, -187500.02, 187500.00, 187500.00, -7626.04, -119517.27, 3361.99, -19992.76, 0.00, 0.00, 0.00
187, -187500.02, -187500.02, 187500.00, 187500.00, -8227.70, -119137.37, 3437.05, 14102.70, 0.00, 0.00, 0.00
188, -187500.02, -187500.02, 187500.00, 187500.00, -12314.67, -123621.82, -775.69, 40707.46, 0.00, 0.00, 0.00
189, -187500.02, -187500.02, 187500.00, 187500.00, -9146.02, -121182.57, 1794.93, -10241.48, 0.00, 0.00, 0.00
190, -187500.02, -187500.02, 187500.00, 187500.00, -7151.60, -118341.27, 4283.89, -3238.70, 0.00, 0.00, 0.00
191, -187500.02, -187500.02, 187500.00, 187500.00, -11587.79, -122629.04, 98.35, 42676.63, 0.00, 0.00, 0.00
192, -187500.02, -187500.02, 187500.00, 187500.00, -10697.25, -122698.38, 318.38, 5950.66, 0.00, 0.00, 0.00
193, -187500.02, -187500.02, 187500.00, 187500.00, -6825.60, -118356.55, 4372.85, -16109.17, 0.00, 0.00, 0.00
194, -187500.02, -187500.02, 187500.00, 187500.00, -10231.91, -121119.67, 1510.26, 34600.93, 0.00, 0.00, 0.00
195, -187500.02, -187500.02, 187500.00, 187500.00, -11828.54, -123597.14, -617.94, 23306.34, 0.09, -0.21, 0.95
196, -187500.02, -187500.02, 187500.00, 187500.00, -7337.32, -119148.61, 3692.78, -20332.78, 0.00, 0.00, 0.00
197, -187500.02, -187500.02, 187500.00, 187500.00, -8741.45, -119625.34, 2953.85, 20034.58, 0.00, 0.00, 0.00
198, -187500.02, -187500.02, 187500.00, 187500.00, -12332.75, -123779.20, -892.66, 37529.76, 0.00, 0.00, 0.00
199, -187500.02, -187500.02, 187500.00, 187500.00, -8574.04, -120593.71, 2353.66, -14718.42, 0.00, 0.00, 0.00
200, -187500.02, -187500.02, 187500.00, 187500.00, -7393.42, -118471.08, 4121.86, 1833.87, 0.00, 0.00, 0.00
201, -187500.02, -187500.02, 187500.00, 187500.00, -11907.76, -123006.23, -252.73, 43297.03, 0.00, 0.00, 0.00
202, -187500.02, -187500.02, 187500.00, 187500.00, -10247.09, -122272.30, 730.37, 607.61, 0.00, 0.00, 0.00
203, -187500.02, -187500.02, 187500.00, 187500.00, -6817.71, -118237.51, 4443.55, -13084.46, 0.00, 0.00, 0.00
204, -187500.02, -187500.02, 187500.00, 187500.00, -10677.56, -121584.26, 1056.59, 37936.03, 0.00, 0.00, 0.00
205, -187500.02, -187500.02, 187500.00, 187500.00, -11566.04, -123416.13, -429.67, 18423.09, 0.10, -0.20, 0.96
206, -187500.02, -187500.02, 187500.00, 187500.00, -7089.84, -118836.33, 3962.58, -20151.06, 0.00, 0.00, 0.00
207, -187500.02, -187500.02, 187500.00, 187500.00, -9140.61, -120012.88, 2563.30, 24642.10, 0.00, 0.00, 0.00
208, -187500.02, -187500.02, 187500.00, 187500.00, -12241.29, -123779.91, -876.43, 33841.23, 0.00, 0.00, 0.00
209, -187500.02, -187500.02, 187500.00, 187500.00, -8154.61, -120112.55, 2788.58, -17183.44, 0.00, 0.00, 0.00
210, -187500.02, -187500.02, 187500.00, 187500.00, -7811.35, -118816.70, 3747.23, 8018.98, 0.00, 0.00, 0.00
211, -187500.02, -187500.02, 187500.00, 187500.00, -12103.94, -123325.79, -547.98, 41929.61, 0.00, 0.00, 0.00
212, -187500.02, -187500.02, 187500.00, 187500.00, -9580.52, -121610.72, 1347.90, -6099.57, 0.00, 0.00, 0.00
213, -187500.02, -187500.02, 187500.00, 187500.00, -6918.02, -118175.16, 4435.70, -8291.25, 0.00, 0.00, 0.00
214, -187500.02, -187500.02, 187500.00, 187500.00, -11203.25, -122138.24, 511.09, 41133.96, 0.00, 0.00, 0.00
215, -187500.02, -187500.02, 187500.00, 187500.00, -11139.80, -123056.90, -86.48, 11837.44, 0.09, -0.20, 0.96
216, -187500.02, -187500.02, 187500.00, 187500.00, -6856.15, -118465.27, 4255.57, -19099.92, 0.00, 0.00, 0.00
217, -187500.02, -187500.02, 187500.00, 187500.00, -9668.22, -120486.09, 2070.26, 29928.40, 0.00, 0.00, 0.00
218, -187500.02, -187500.02, 187500.00, 187500.00, -12163.68, -123784.41, -876.30, 29933.21, 0.00, 0.00, 0.00
219, -187500.02, -187500.02, 187500.00, 187500.00, -7762.02, -119663.63, 3184.77, -19286.18, 0.00, 0.00, 0.00
220, -187500.02, -187500.02, 187500.00, 187500.00, -8133.26, -119065.48, 3469.86, 12783.48, 0.00, 0.00, 0.00
221, -187500.02, -187500.02, 187500.00, 187500.00, -12233.11, -123518.09, -724.80, 40694.41, 0.00, 0.00, 0.00
222, -187500.02, -187500.02, 187500.00, 187500.00, -9184.11, -121196.97, 1732.95, -9656.89, 0.00, 0.00, 0.00
223, -187500.02, -187500.02, 187500.00, 187500.00, -7132.04, -118311.83, 4264.58, -3691.90, 0.00, 0.00, 0.00
224, -187500.02, -187500.02, 187500.00, 187500.00, -11535.22, -122552.73, 117.93, 42380.74, 0.00, 0.00, 0.00
225, -187500.02, -187500.02, 187500.00, 187500.00, -10682.64, -122653.31, 303.31, 6140.43, 0.09, -0.20, 0.96
226, -187500.02, -187500.02, 187500.00, 187500.00, -6817.15, -118322.46, 4344.98, -16025.13, 0.00, 0.00, 0.00
227, -187500.02, -187500.02, 187500.00, 187500.00, -10233.75, -121100.27, 1470.21, 34742.97, 0.00, 0.00, 0.00
228, -187500.02, -187500.02, 187500.00, 187500.00, -11866.34, -123627.65, -704.66, 23820.16, 0.00, 0.00, 0.00
229, -187500.02, -187500.02, 187500.00, 187500.00, -7338.32, -119160.37, 3625.45, -20360.36, 0.00, 0.00, 0.00
230, -187500.02, -187500.02, 187500.00, 187500.00, -8668.57, -119547.72, 2968.83, 19556.08, 0.00, 0.00, 0.00
231, -187500.02, -187500.02, 187500.00, 187500.00, -12324.62, -123748.28, -928.56, 37942.18, 0.00, 0.00, 0.00
232, -187500.02, -187500.02, 187500.00, 187500.00, -8615.52, -120628.09, 2256.74, -14363.95, 0.00, 0.00, 0.00
233, -187500.02, -187500.02, 187500.00, 187500.00, -7333.92, -118408.16, 4119.05, 1140.86, 0.00, 0.00, 0.00
234, -187500.02, -187500.02, 187500.00, 187500.00, -11831.83, -122898.54, -217.12, 43068.59, 0.00, 0.00, 0.00
235, -187500.02, -187500.02, 187500.00, 187500.00, -10253.13, -122240.45, 691.76, 927.58, 0.09, -0.21, 0.96
236, -187500.02, -187500.02, 187500.00, 187500.00, -6806.22, -118196.20, 4414.69, -13355.19, 0.00, 0.00, 0.00
237, -187500.02, -187500.02, 187500.00, 187500.00, -10633.71, -121500.03, 1070.31, 37652.90, 0.00, 0.00, 0.00
238, -187500.02, -187500.02, 187500.00, 187500.00, -11556.32, -123355.77, -439.46, 18635.56, 0.00, 0.00, 0.00
239, -187500.02, -187500.02, 187500.00, 187500.00, -7117.73, -118820.77, 3912.18, -19772.11, 0.00, 0.00, 0.00
240, -187500.02, -187500.02, 187500.00, 187500.00, -9178.99, -120028.10, 2490.23, 24920.74, 0.00, 0.00, 0.00
241, -187500.02, -187500.02, 187500.00, 187500.00, -12211.12, -123738.38, -888.50, 33360.98, 0.00, 0.00, 0.00
242, -187500.02, -187500.02, 187500.00, 187500.00, -8073.49, -119998.58, 2844.91, -17707.03, 0.00, 0.00, 0.00
243, -187500.02, -187500.02, 187500.00, 187500.00, -7771.63, -118722.92, 3784.78, 7943.21, 0.00, 0.00, 0.00
244, -187500.02, -187500.02, 187500.00, 187500.00, -12139.30, -123310.14, -577.70, 42481.14, 0.00, 0.00, 0.00
245, -187500.02, -187500.02, 187500.00, 187500.00, -9660.04, -121671.85, 1257.93, -5453.74, 0.09, -0.20, 0.96
246, -187500.02, -187500.02, 187500.00, 187500.00, -6880.45, -118138.15, 4442.92, -8929.52, 0.00, 0.00, 0.00
247, -187500.02, -187500.02, 187500.00, 187500.00, -11123.66, -122028.88, 577.03, 40769.85, 0.00, 0.00, 0.00
248, -187500.02, -187500.02, 187500.00, 187500.00, -11171.33, -123047.78, -122.09, 12439.28, 0.00, 0.00, 0.00
249, -187500.02, -187500.02, 187500.00, 187500.00, -6869.09, -118458.30, 4219.96, -19271.12, 0.00, 0.00, 0.00
250, -187500.02, -187500.02, 187500.00, 187500.00, -9603.00, -120396.98, 2107.12, 29421.47, 0.00, 0.00, 0.00
251, -187500.02, -187500.02, 187500.00, 187500.00, -12149.58, -123733.33, -880.79, 30266.96, 0.00, 0.00, 0.00
252, -187500.02, -187500.02, 187500.00, 187500.00, -7785.83, -119662.45, 3135.01, -19084.84, 0.00, 0.00, 0.00
253, -187500.02, -187500.02, 187500.00, 187500.00, -8111.69, -119024.16, 3461.37, 12487.94, 0.00, 0.00, 0.00
254, -187500.02, -187500.02, 187500.00, 187500.00, -12217.15, -123476.11, -733.16, 40726.87, 0.09, -0.20, 0.96
255, -187500.02, -187500.02, 187500.00, 187500.00, -9183.66, -121174.01, 1707.74, -9566.86, 0.00, 0.00, 0.00
0, -187500.02, -187500.02, 187500.00, 187500.00, -7090.15, -118243.79, 4282.97, -4162.61, 0.00, 0.00, 0.00
1, -187500.02, -187500.02, 187500.00, 187500.00, -11499.95, -122479.24, 140.26, 42235.81, 0.00, 0.00, 0.00
2, -187500.02, -187500.02, 187500.00, 187500.00, -10707.65, -122646.68, 262.36, 6457.37, 0.00, 0.00, 0.00
3, -187500.02, -187500.02, 187500.00, 187500.00, -6778.19, -118259.59, 4358.12, -16670.60, 0.00, 0.00, 0.00
4, -187500.02, -187500.02, 187500.00, 187500.00, -10146.28, -120963.88, 1545.35, 34124.77, 0.00, 0.00, 0.00
5, -187500.02, -187500.02, 187500.00, 187500.00, -11904.96, -123609.63, -745.16, 24584.06, 0.00, 0.00, 0.00
6, -187500.02, -187500.02, 187500.00, 187500.00, -7381.51, -119177.20, 3561.88, -20416.42, 0.00, 0.00, 0.00
7, -187500.02, -187500.02, 187500.00, 187500.00, -8590.78, -119441.44, 3024.71, 18553.98, 0.00, 0.00, 0.00
8, -187500.02, -187500.02, 187500.00, 187500.00, -12363.58, -123749.34, -976.57, 38346.81, 0.09, -0.20, 0.96
9, -187500.02, -187500.02, 187500.00, 187500.00, -8713.40, -120733.30, 2121.00, -14276.19, 0.00, 0.00, 0.00
10, -187500.02, -187500.02, 187500.00, 187500.00, -7197.73, -118281.74, 4204.12, -1110.14, 0.00, 0.00, 0.00
11, -187500.02, -187500.02, 187500.00, 187500.00, -11716.25, -122735.80, -115.02, 42214.26, 0.00, 0.00, 0.00
12, -187500.02, -187500.02, 187500.00, 187500.00, -10358.22, -122306.95, 574.42, 1586.73, 0.00, 0.00, 0.00
13, -187500.02, -187500.02, 187500.00, 187500.00, -6723.61, -118101.45, 4459.71, -15344.52, 0.00, 0.00, 0.00
14, -187500.02, -187500.02, 187500.00, 187500.00, -10427.33, -121218.60, 1271.99, 36108.53, 0.00, 0.00, 0.00
15, -187500.02, -187500.02, 187500.00, 187500.00, -11690.48, -123402.05, -562.33, 20490.71, 0.00, 0.00, 0.00
16, -187500.02, -187500.02, 187500.00, 187500.00, -7195.90, -118885.41, 3790.27, -20933.28, 0.00, 0.00, 0.00
17, -187500.02, -187500.02, 187500.00, 187500.00, -8890.56, -119676.96, 2750.52, 21750.86, 0.00, 0.00, 0.00
18, -187500.02, -187500.02, 187500.00, 187500.00, -12259.33, -123654.18, -909.58, 35533.55, 0.09, -0.20, 0.96
19, -187500.02, -187500.02, 187500.00, 187500.00, -8347.35, -120245.54, 2532.25, -16446.99, 0.00, 0.00, 0.00
20, -187500.02, -187500.02, 187500.00, 187500.00, -7553.70, -118508.19, 3927.22, 3985.52, 0.00, 0.00, 0.00
21, -187500.02, -187500.02, 187500.00, 187500.00, -11960.66, -123030.39, -404.52, 42248.15, 0.00, 0.00, 0.00
22, -187500.02, -187500.02, 187500.00, 187500.00, -9882.09, -121821.95, 1024.45, -3035.61, 0.00, 0.00, 0.00
23, -187500.02, -187500.02, 187500.00, 187500.00, -6810.62, -118058.83, 4452.56, -11395.37, 0.00, 0.00, 0.00
24, -187500.02, -187500.02, 187500.00, 187500.00, -10913.15, -121739.64, 774.89, 39051.69, 0.00, 0.00, 0.00
25, -187500.02, -187500.02, 187500.00, 187500.00, -11326.99, -123121.79, -268.02, 14695.58, 0.00, 0.00, 0.00
26, -187500.02, -187500.02, 187500.00, 187500.00, -6922.83, -118509.82, 4124.21, -19996.85, 0.00, 0.00, 0.00
27, -187500.02, -187500.02, 187500.00, 187500.00, -9388.31, -120142.90, 2300.06, 27212.15, 0.00, 0.00, 0.00
28, -187500.02, -187500.02, 187500.00, 187500.00, -12218.18, -123723.80, -931.22, 31661.98, 0.09, -0.21, 0.96
29, -187500.02, -187500.02, 187500.00, 187500.00, -7931.83, -119803.22, 2963.22, -18825.00, 0.00, 0.00, 0.00
30, -187500.02, -187500.02, 187500.00, 187500.00, -7894.97, -118798.40, 3642.95, 9804.66, 0.00, 0.00, 0.00
31, -187500.02, -187500.02, 187500.00, 187500.00, -12151.97, -123329.52, -647.98, 41546.41, 0.00, 0.00, 0.00
32, -187500.02, -187500.02, 187500.00, 187500.00, -9434.04, -121403.80, 1447.48, -7694.41, 0.00, 0.00, 0.00
33, -187500.02, -187500.02, 187500.00, 187500.00, -6963.73, -118147.49, 4352.89, -7243.13, 0.00, 0.00, 0.00
34, -187500.02, -187500.02, 187500.00, 187500.00, -11277.91, -122195.73, 364.02, 41049.89, 0.00, 0.00, 0.00
35, -187500.02, -187500.02, 187500.00, 187500.00, -10922.96, -122807.32, 64.40, 9166.85, 0.00, 0.00, 0.00
36, -187500.02, -187500.02, 187500.00, 187500.00, -6793.59, -118305.59, 4301.66, -18398.55, 0.00, 0.00, 0.00
37, -187500.02, -187500.02, 187500.00, 187500.00, -9860.02, -120637.99, 1833.42, 31604.05, 0.00, 0.00, 0.00
38, -187500.02, -187500.02, 187500.00, 187500.00, -12043.70, -123671.23, -841.30, 27491.84, 0.09, -0.21, 0.96
39, -187500.02, -187500.02, 187500.00, 187500.00, -7565.26, -119397.23, 3345.12, -20094.51, 0.00, 0.00, 0.00
40, -187500.02, -187500.02, 187500.00, 187500.00, -8299.58, -119166.98, 3279.16, 15143.08, 0.00, 0.00, 0.00
41, -187500.02, -187500.02, 187500.00, 187500.00, -12289.35, -123586.12, -856.72, 40060.56, 0.00, 0.00, 0.00
42, -187500.02, -187500.02, 187500.00, 187500.00, -8998.57, -120999.42, 1852.62, -11430.84, 0.00, 0.00, 0.00
43, -187500.02, -187500.02, 187500.00, 187500.00, -7124.48, -118256.10, 4242.63, -2949.13, 0.00, 0.00, 0.00
44, -187500.02, -187500.02, 187500.00, 187500.00, -11565.53, -122565.97, 43.38, 42205.66, 0.00, 0.00, 0.00
45, -187500.02, -187500.02, 187500.00, 187500.00, -10530.04, -122469.90, 418.29, 4407.38, 0.00, 0.00, 0.00
46, -187500.02, -187500.02, 187500.00, 187500.00, -6782.26, -118224.56, 4368.49, -15609.18, 0.00, 0.00, 0.00
47, -187500.02, -187500.02, 187500.00, 187500.00, -10313.85, -121153.54, 1360.86, 35267.45, 0.00, 0.00, 0.00
48, -187500.02, -187500.02, 187500.00, 187500.00, -11727.36, -123472.40, -605.49, 21847.91, 0.09, -0.20, 0.96
49, -187500.02, -187500.02, 187500.00, 187500.00, -7218.61, -118969.93, 3746.82, -20628.07, 0.00, 0.00, 0.00
50, -187500.02, -187500.02, 187500.00, 187500.00, -8789.73, -119623.73, 2839.92, 20952.21, 0.00, 0.00, 0.00
51, -187500.02, -187500.02, 187500.00, 187500.00, -12282.86, -123710.84, -929.72, 36511.86, 0.00, 0.00, 0.00
52, -187500.02, -187500.02, 187500.00, 187500.00, -8434.90, -120406.38, 2425.03, -15646.82, 0.00, 0.00, 0.00
53, -187500.02, -187500.02, 187500.00, 187500.00, -7430.77, -118456.02, 4025.46, 2924.44, 0.00, 0.00, 0.00
54, -187500.02, -187500.02, 187500.00, 187500.00, -11912.09, -123007.03, -348.15, 42889.60, 0.00, 0.00, 0.00
55, -187500.02, -187500.02, 187500.00, 187500.00, -10058.73, -122065.94, 832.49, -1215.33, 0.00, 0.00, 0.00
56, -187500.02, -187500.02, 187500.00, 187500.00, -6748.48, -118109.90, 4458.41, -12838.26, 0.00, 0.00, 0.00
57, -187500.02, -187500.02, 187500.00, 187500.00, -10715.34, -121587.70, 955.87, 38467.15, 0.00, 0.00, 0.00
58, -187500.02, -187500.02, 187500.00, 187500.00, -11521.59, -123358.54, -462.59, 17912.15, 0.09, -0.20, 0.96
59, -187500.02, -187500.02, 187500.00, 187500.00, -7055.53, -118783.70, 3923.85, -20104.48, 0.00, 0.00, 0.00
60, -187500.02, -187500.02, 187500.00, 187500.00, -9166.96, -120039.03, 2456.84, 25037.30, 0.00, 0.00, 0.00
61, -187500.02, -187500.02, 187500.00, 187500.00, -12189.32, -123746.54, -914.05, 33221.82, 0.00, 0.00, 0.00
62, -187500.02, -187500.02, 187500.00, 187500.00, -8064.58, -120027.90, 2798.84, -17553.79, 0.00, 0.00, 0.00
63, -187500.02, -187500.02, 187500.00, 187500.00, -7816.96, -118834.07, 3667.36, 8562.19, 0.00, 0.00, 0.00
64, -187500.02, -187500.02, 187500.00, 187500.00, -12096.90, -123356.05, -625.31, 41847.58, 0.00, 0.00, 0.00
65, -187500.02, -187500.02, 187500.00, 187500.00, -9501.64, -121569.95, 1342.80, -6597.54, 0.00, 0.00, 0.00
66, -187500.02, -187500.02, 187500.00, 187500.00, -6856.11, -118142.69, 4418.56, -8339.06, 0.00, 0.00, 0.00
67, -187500.02, -187500.02, 187500.00, 187500.00, -11156.63, -122123.05, 479.20, 40975.91, 0.00, 0.00, 0.00
68, -187500.02, -187500.02, 187500.00, 187500.00, -11071.82, -123015.91, -89.34, 11405.98, 0.09, -0.20, 0.96
69, -187500.02, -187500.02, 187500.00, 187500.00, -6829.93, -118463.95, 4216.34, -18852.67, 0.00, 0.00, 0.00
70, -187500.02, -187500.02, 187500.00, 187500.00, -9678.28, -120543.80, 1979.85, 30278.57, 0.00, 0.00, 0.00
71, -187500.02, -187500.02, 187500.00, 187500.00, -12085.27, -123766.01, -887.65, 29150.65, 0.00, 0.00, 0.00
72, -187500.02, -187500.02, 187500.00, 187500.00, -7647.58, -119584.53, 3228.33, -19937.55, 0.00, 0.00, 0.00
73, -187500.02, -187500.02, 187500.00, 187500.00, -8075.37, -119029.88, 3471.85, 12724.54, 0.00, 0.00, 0.00
74, -187500.02, -187500.02, 187500.00, 187500.00, -12215.27, -123531.12, -764.52, 40935.23, 0.00, 0.00, 0.00
